time (s)	coil I (A)	last det (V)	int current (uC)
4545.224711	1.055929	0.452961	501.566254
4545.225609	1.478870	0.452961	1829.591187
4545.226615	1.471945	0.452961	3310.367432
4545.227614	1.432734	0.452961	4741.668945
4545.228500	1.397750	0.452961	5980.075684
4545.229362	1.363564	0.452961	7155.468262
4545.230466	1.325405	0.452961	8618.715820
4545.231368	0.848430	0.452961	9384.000000
4545.232239	0.106135	0.452961	9476.443359
4545.233236	0.087030	0.452961	9563.211914
4545.234239	0.087019	0.452961	9650.492187
4545.235125	0.087045	0.452961	9727.613281
4545.235985	0.087001	0.452961	9802.433594
4545.237087	0.087158	0.452961	9898.482422
4545.238008	0.086964	0.452961	9978.576172
4545.238878	0.086997	0.452961	10054.263672
4545.239846	0.087133	0.452961	10138.608398
4545.240845	0.087023	0.452961	10225.543945
4546.279499	1.104606	0.425403	618.579224
4546.280558	1.486179	0.425403	2192.442871
4546.281442	1.467469	0.425403	3489.686035
4546.282352	1.430779	0.425403	4791.694824
4546.283453	1.388489	0.425403	6320.420898
4546.284394	1.353109	0.425403	7593.696289
4546.285267	1.321450	0.425403	8747.322266
4546.286296	0.568264	0.425403	9332.066406
4546.287320	0.088491	0.425403	9422.681641
4546.288208	0.087056	0.425403	9499.987305
4546.289166	0.087067	0.425403	9583.397461
4546.290221	0.087158	0.425403	9675.349609
4546.291156	0.087063	0.425403	9756.753906
4546.292018	0.087103	0.425403	9831.836914
4546.293076	0.087136	0.425403	9924.027344
4546.294085	0.087037	0.425403	10011.847656
4546.294979	0.087096	0.425403	10089.711914
4546.295950	0.087144	0.425403	10174.328125
4547.310078	1.041976	0.443812	512.652344
4547.311003	1.481283	0.443812	1882.839111
4547.311872	1.474592	0.443812	3164.259766
4547.312949	1.433481	0.443812	4708.119141
4547.313971	1.393337	0.443812	6132.109863
4547.314861	1.359858	0.443812	7342.383789
4547.315839	1.324838	0.443812	8638.075195
4547.316895	0.637240	0.443812	9311.000977
4547.317812	0.091322	0.443812	9394.743164
4547.318672	0.086949	0.443812	9469.519531
4547.319767	0.087096	0.443812	9564.889648
4547.320758	0.087019	0.443812	9651.125977
4547.321639	0.086993	0.443812	9727.767578
4547.322640	0.087111	0.443812	9814.964844
4547.323685	0.087092	0.443812	9905.976562
4547.324572	0.086997	0.443812	9983.142578
4547.325429	0.086971	0.443812	10057.676758
4547.326512	0.087253	0.443812	10152.171875
4548.366386	1.094868	0.458443	587.944214
4548.367361	1.485073	0.458443	2035.890625
4548.368288	1.469517	0.458443	3398.132568
4548.369157	1.434250	0.458443	4644.496094
4548.370247	1.393143	0.458443	6163.022461
4548.371160	1.357928	0.458443	7402.811035
4548.372040	1.326471	0.458443	8570.105469
4548.373035	0.773983	0.458443	9340.218750
4548.374006	0.093424	0.458443	9430.933594
4548.374938	0.086902	0.458443	9511.925781
4548.375801	0.087118	0.458443	9587.108398
4548.376904	0.087246	0.458443	9683.340820
4548.377795	0.087103	0.458443	9760.950195
4548.378655	0.087045	0.458443	9835.808594
4548.379673	0.087162	0.458443	9924.539062
4548.380663	0.087030	0.458443	10010.699219
4548.381539	0.086927	0.458443	10086.847656
4548.382401	0.087045	0.458443	10161.879883
4549.396981	1.036578	0.491564	497.557648
4549.397860	1.477518	0.491564	1796.296265
4549.398811	1.474351	0.491564	3198.403809
4549.399851	1.433895	0.491564	4689.654785
4549.400788	1.397091	0.491564	5998.729004
4549.401657	1.363403	0.491564	7183.526367
4549.402721	1.325607	0.491564	8593.971680
4549.403739	0.711445	0.491564	9318.222656
4549.404619	0.095999	0.491564	9402.701172
4549.405604	0.086971	0.491564	9488.368164
4549.406657	0.087056	0.491564	9580.038086
4549.407564	0.087001	0.491564	9658.947266
4549.408422	0.086931	0.491564	9733.534180
4549.409486	0.087048	0.491564	9826.153320
4549.410488	0.087078	0.491564	9913.405273
4549.411365	0.086971	0.491564	9989.679687
4549.412329	0.087136	0.491564	10073.678711
4549.413382	0.087081	0.491564	10165.375000
4550.450172	1.041277	0.464175	508.143127
4550.451061	1.478928	0.464175	1822.910400
4550.451938	1.476163	0.464175	3117.505615
4550.452872	1.440601	0.464175	4463.026367
4550.453881	1.400973	0.464175	5876.607910
4550.454802	1.365242	0.464175	7133.995605
4550.455685	1.333220	0.464175	8311.229492
4550.456721	0.971279	0.464175	9317.474609
4550.457595	0.123871	0.464175	9425.737305
4550.458467	0.086895	0.464175	9501.509766
4550.459327	0.087019	0.464175	9576.345703
4550.460376	0.086964	0.464175	9667.571289
4550.461270	0.087070	0.464175	9745.412109
4550.462145	0.086938	0.464175	9821.483398
4550.463123	0.087085	0.464175	9906.652344
4550.464066	0.087012	0.464175	9988.704102
4550.464983	0.086924	0.464175	10068.413086
4550.465846	0.087052	0.464175	10143.539062
4551.483391	1.041295	0.491979	510.234619
4551.484267	1.478192	0.491979	1805.130981
4551.485200	1.473992	0.491979	3180.365234
4551.486274	1.432921	0.491979	4719.322754
4551.487226	1.395509	0.491979	6047.847168
4551.488099	1.361851	0.491979	7236.742676
4551.489154	1.324208	0.491979	8633.782227
4551.490175	0.664548	0.491979	9312.286133
4551.491070	0.093025	0.491979	9395.542969
4551.492039	0.087023	0.491979	9479.868164
4551.493087	0.086997	0.491979	9571.041016
4551.494002	0.087034	0.491979	9650.676758
4551.494863	0.086986	0.491979	9725.572266
4551.495938	0.087155	0.491979	9819.263672
4551.496927	0.087012	0.491979	9905.318359
4551.497810	0.087019	0.491979	9982.156250
4551.498793	0.087242	0.491979	10067.916016
4551.499837	0.086971	0.491979	10158.713867
4552.535005	1.003572	0.470351	455.621582
4552.536101	1.483641	0.470351	2081.692383
4552.537062	1.466708	0.470351	3491.198486
4552.537927	1.432485	0.470351	4730.298340
4552.538979	1.391700	0.470351	6194.367187
4552.540005	1.353127	0.470351	7582.675781
4552.540892	1.321011	0.470351	8754.412109
4552.541852	0.670140	0.470351	9397.747070
4552.542901	0.089894	0.470351	9492.045898
4552.543828	0.086865	0.470351	9572.570312
4552.544690	0.087096	0.470351	9647.647461
4552.545753	0.087111	0.470351	9740.246094
4552.546773	0.086979	0.470351	9828.964844
4552.547649	0.087092	0.470351	9905.257812
4552.548606	0.087085	0.470351	9988.597656
4552.549663	0.087111	0.470351	10080.673828
4552.550563	0.086968	0.470351	10158.945312
4552.551431	0.087129	0.470351	10234.573242
4553.568184	0.976476	0.520173	412.072784
4553.569200	1.478295	0.520173	1914.020142
4553.570188	1.469868	0.520173	3366.250000
4553.571069	1.435492	0.520173	4630.918457
4553.571936	1.399508	0.520173	5844.291992
4553.573058	1.359360	0.520173	7369.494141
4553.573968	1.325621	0.520173	8575.809570
4553.574849	0.914971	0.520173	9381.898437
4553.575871	0.107289	0.520173	9491.547852
4553.576846	0.086869	0.520173	9576.245117
4553.577756	0.086982	0.520173	9655.399414
4553.578616	0.087089	0.520173	9730.295898
4553.579713	0.087074	0.520173	9825.816406
4553.580597	0.087100	0.520173	9902.812500
4553.581460	0.086938	0.520173	9977.840820
4553.582459	0.087180	0.520173	10064.933594
4553.583452	0.087074	0.520173	10151.398437
4553.584345	0.087041	0.520173	10229.125977
4554.619875	1.026661	0.498235	475.344238
4554.620752	1.475903	0.498235	1769.711548
4554.621744	1.473527	0.498235	3231.449951
4554.622808	1.432511	0.498235	4755.641602
4554.623718	1.396139	0.498235	6026.127930
4554.624580	1.362481	0.498235	7200.585937
4554.625667	1.324343	0.498235	8640.146484
4554.626669	0.696266	0.498235	9337.804687
4554.627537	0.095094	0.498235	9420.346680
4554.628538	0.087048	0.498235	9507.482422
4554.629583	0.087059	0.498235	9598.458984
4554.630477	0.087133	0.498235	9676.355469
4554.631346	0.087048	0.498235	9752.000000
4554.632445	0.087206	0.498235	9847.838867
4554.633423	0.087048	0.498235	9932.971680
4554.634287	0.086971	0.498235	10008.115234
4554.635350	0.087220	0.498235	10100.831055
4554.636395	0.087184	0.498235	10191.938477
4555.653580	0.992933	0.533185	435.897705
4555.654445	1.472933	0.533185	1709.984985
4555.655504	1.471348	0.533185	3268.142090
4555.656503	1.432698	0.533185	4699.407227
4555.657399	1.397435	0.533185	5951.509277
4555.658383	1.360609	0.533185	7290.348633
4555.659458	1.321809	0.533185	8711.292969
4555.660371	0.725354	0.533185	9373.541016
4555.661232	0.097196	0.533185	9457.226562
4555.662324	0.087151	0.533185	9552.395508
4555.663289	0.086975	0.533185	9636.326172
4555.664169	0.086858	0.533185	9712.760742
4555.665173	0.087169	0.533185	9800.278320
4555.666229	0.087078	0.533185	9892.232422
4555.667115	0.087045	0.533185	9969.353516
4555.667988	0.087008	0.533185	10045.311523
4555.669071	0.087177	0.533185	10139.723633
4555.670025	0.087056	0.533185	10222.774414
4556.706286	1.035842	0.498638	490.989258
4556.707169	1.476980	0.498638	1795.162598
4556.708034	1.476284	0.498638	3072.148437
4556.709110	1.435836	0.498638	4617.107910
4556.710056	1.398325	0.498638	5939.923828
4556.710934	1.365055	0.498638	7138.442383
4556.711890	1.330386	0.498638	8410.291016
4556.712938	0.859406	0.498638	9310.948242
4556.713818	0.106458	0.498638	9404.630859
4556.714779	0.087067	0.498638	9488.301758
4556.715846	0.087030	0.498638	9581.163086
4556.716762	0.087034	0.498638	9660.885742
4556.717639	0.087169	0.498638	9737.333008
4556.718594	0.087213	0.498638	9820.621094
4556.719610	0.087012	0.498638	9909.025391
4556.720500	0.087012	0.498638	9986.465820
4556.721362	0.087096	0.498638	10061.542969
4556.722433	0.087103	0.498638	10154.831055
4557.738516	1.059675	0.543473	530.897339
4557.739545	1.484136	0.543473	2058.072998
4557.740432	1.469685	0.543473	3361.683594
4557.741408	1.431874	0.543473	4759.192383
4557.742468	1.389822	0.543473	6232.403320
4557.743398	1.355076	0.543473	7492.624023
4557.744271	1.322611	0.543473	8647.263672
4557.745349	0.594474	0.543473	9288.106445
4557.746342	0.088857	0.543473	9376.341797
4557.747233	0.087114	0.543473	9453.960937
4557.748218	0.087177	0.543473	9539.830078
4557.749274	0.087169	0.543473	9631.880859
4557.750168	0.087030	0.543473	9709.685547
4557.751028	0.087085	0.543473	9784.578125
4557.752135	0.087228	0.543473	9881.139648
4557.753088	0.086931	0.543473	9963.985352
4557.753960	0.087070	0.543473	10039.911133
4557.754981	0.087195	0.543473	10128.937500
4558.791608	0.974326	0.532017	410.191315
4558.792585	1.472234	0.532017	1848.563843
4558.793495	1.473907	0.532017	3189.819824
4558.794409	1.438909	0.532017	4504.982422
4558.795287	1.403851	0.532017	5737.563965
4558.796303	1.364443	0.532017	7123.838379
4558.797271	1.329803	0.532017	8411.087891
4558.798162	1.037999	0.532017	9335.945312
4558.799165	0.133019	0.532017	9469.363281
4558.800062	0.086829	0.532017	9547.249023
4558.800987	0.087037	0.532017	9627.758789
4558.801847	0.087096	0.532017	9702.661133
4558.802891	0.086949	0.532017	9793.436523
4558.803764	0.087019	0.532017	9869.404297
4558.804676	0.087030	0.532017	9948.775391
4558.805556	0.087224	0.532017	10025.532227
4558.806545	0.087037	0.532017	10111.612305
4558.807464	0.086997	0.532017	10191.562500
4559.824379	1.016528	0.566523	498.098846
4559.825453	1.483759	0.566523	2091.655518
4559.826390	1.466660	0.566523	3465.916016
4559.827267	1.431757	0.566523	4721.566406
4559.828331	1.390272	0.566523	6200.815918
4559.829351	1.352300	0.566523	7580.161621
4559.830250	1.320018	0.566523	8766.858398
4559.831223	0.622632	0.566523	9372.679687
4559.832268	0.088975	0.566523	9465.658203
4559.833191	0.087045	0.566523	9546.000000
4559.834056	0.087140	0.566523	9621.375977
4559.835131	0.087081	0.566523	9714.988281
4559.836121	0.087045	0.566523	9801.162109
4559.837002	0.087015	0.566523	9877.822266
4559.837997	0.087118	0.566523	9964.504883
4559.839046	0.087166	0.566523	10055.941406
4559.839941	0.087096	0.566523	10133.892578
4559.840799	0.087096	0.566523	10208.621094
4560.876985	0.975384	0.540420	411.612244
4560.878019	1.477511	0.540420	1939.358643
4560.879077	1.467155	0.540420	3491.608398
4560.879963	1.431467	0.540420	4759.888672
4560.880865	1.395399	0.540420	6018.538574
4560.881955	1.355248	0.540420	7495.758789
4560.882899	1.321150	0.540420	8742.923828
4560.883764	0.766260	0.540420	9405.738281
4560.884802	0.093464	0.540420	9502.753906
4560.885834	0.086971	0.540420	9592.508789
4560.886706	0.087048	0.540420	9668.415039
4560.887637	0.087136	0.540420	9749.539062
4560.888700	0.087191	0.540420	9842.223633
4560.889633	0.087107	0.540420	9923.494141
4560.890504	0.087030	0.540420	9999.296875
4560.891552	0.087191	0.540420	10090.672852
4560.892573	0.087173	0.540420	10179.676758
4560.893464	0.086964	0.540420	10257.162109
4561.909212	1.021487	0.572050	464.776520
4561.910092	1.475273	0.572050	1763.017212
4561.910955	1.476072	0.572050	3036.867187
4561.912046	1.436016	0.572050	4603.560059
4561.912968	1.399281	0.572050	5893.697266
4561.913846	1.366014	0.572050	7093.057617
4561.914840	1.330895	0.572050	8415.966797
4561.915859	0.888560	0.572050	9321.409180
4561.916739	0.110544	0.572050	9418.688477
4561.917595	0.086924	0.572050	9493.095703
4561.918677	0.087133	0.572050	9587.373047
4561.919610	0.087001	0.572050	9668.544922
4561.920482	0.087070	0.572050	9744.470703
4561.921452	0.087151	0.572050	9829.006836
4561.922471	0.087041	0.572050	9917.701172
4561.923359	0.087041	0.572050	9994.993164
4561.924221	0.087008	0.572050	10069.994141
4561.925302	0.087085	0.572050	10164.132812
4562.962406	1.032447	0.558813	473.893372
4562.963288	1.476299	0.558813	1775.989014
4562.964264	1.473347	0.558813	3213.975830
4562.965339	1.431606	0.558813	4752.952637
4562.966253	1.395242	0.558813	6028.203613
4562.967120	1.361287	0.558813	7208.438965
4562.968206	1.323193	0.558813	8645.426758
4562.969190	0.694709	0.558813	9329.020508
4562.970080	0.094841	0.558813	9413.429687
4562.971092	0.087034	0.558813	9501.507812
4562.972145	0.086982	0.558813	9593.100586
4562.973026	0.087103	0.558813	9669.838867
4562.973889	0.087118	0.558813	9745.021484
4562.974995	0.087144	0.558813	9841.402344
4562.975951	0.087059	0.558813	9924.630859
4562.976811	0.087166	0.558813	9999.592773
4562.977859	0.087187	0.558813	10090.964844
4562.978905	0.087001	0.558813	10181.967773
4563.995172	1.070076	0.608071	552.158997
4563.996087	1.481400	0.608071	1907.640137
4563.996948	1.472827	0.608071	3175.744141
4563.998036	1.431771	0.608071	4733.511230
4563.999047	1.391971	0.608071	6140.794434
4563.999924	1.358855	0.608071	7332.510254
4564.000926	1.323431	0.608071	8658.588867
4564.001979	0.616157	0.608071	9307.402344
4564.002873	0.091406	0.608071	9389.119141
4564.003786	0.086909	0.608071	9468.466797
4564.004656	0.087026	0.608071	9544.179687
4564.005620	0.086938	0.608071	9627.988281
4564.006551	0.087048	0.608071	9709.030273
4564.007465	0.087030	0.608071	9788.576172
4564.008341	0.087001	0.608071	9864.789062
4564.009319	0.087030	0.608071	9949.904297
4564.010251	0.086960	0.608071	10030.951172
4564.011113	0.086982	0.608071	10105.929687
4565.044764	1.058892	0.561331	534.740234
4565.045727	1.482477	0.561331	1962.365356
4565.046590	1.472490	0.561331	3233.124512
4565.047670	1.430193	0.561331	4777.732910
4565.048732	1.389543	0.561331	6253.427734
4565.049617	1.355585	0.561331	7453.120117
4565.050561	1.321567	0.561331	8700.679687
4565.051645	0.533954	0.561331	9279.485352
4565.052581	0.088927	0.561331	9362.720703
4565.053448	0.086968	0.561331	9438.122070
4565.054497	0.087195	0.561331	9529.589844
4565.055510	0.086960	0.561331	9617.680664
4565.056400	0.087085	0.561331	9695.186523
4565.057363	0.087198	0.561331	9779.158203
4565.058409	0.087100	0.561331	9870.264648
4565.059326	0.087030	0.561331	9950.071289
4565.060184	0.087173	0.561331	10024.865234
4565.061263	0.087162	0.561331	10118.913086
4566.082047	1.049392	0.619093	506.856384
4566.082922	1.477189	0.619093	1799.396484
4566.083893	1.472670	0.619093	3229.358643
4566.084952	1.431998	0.619093	4745.844727
4566.085868	1.395527	0.619093	6024.147949
4566.086730	1.361865	0.619093	7198.075684
4566.087815	1.323878	0.619093	8634.483398
4566.088824	0.684525	0.619093	9325.168945
4566.089695	0.094347	0.619093	9407.344727
4566.090675	0.087059	0.619093	9492.663086
4566.091738	0.087144	0.619093	9585.296875
4566.092636	0.086990	0.619093	9663.414062
4566.093500	0.087019	0.619093	9738.598633
4566.094599	0.087081	0.619093	9834.300781
4566.095559	0.086906	0.619093	9917.730469
4566.096442	0.086993	0.619093	9994.545898
4566.097437	0.087169	0.619093	10081.279297
4566.098503	0.087133	0.619093	10174.163086
4567.131108	1.014034	0.572848	472.540039
4567.132142	1.483235	0.572848	2006.204834
4567.133044	1.469839	0.572848	3331.999512
4567.133917	1.436173	0.572848	4585.778320
4567.134941	1.396868	0.572848	6016.170898
4567.135833	1.361473	0.572848	7230.604980
4567.136747	1.328698	0.572848	8445.034180
4567.137627	0.975190	0.572848	9303.202148
4567.138673	0.104663	0.572848	9412.679687
4567.139566	0.086953	0.572848	9490.329102
4567.140438	0.087085	0.572848	9566.267578
4567.141406	0.087026	0.572848	9650.508789
4567.142365	0.086975	0.572848	9733.917969
4567.143288	0.087008	0.572848	9814.226562
4567.144152	0.087015	0.572848	9889.408203
4567.145180	0.087045	0.572848	9978.889648
4567.146057	0.087100	0.572848	10055.276367
4567.146918	0.087001	0.572848	10130.183594
4568.166331	0.975315	0.633103	410.607574
4568.167348	1.477723	0.633103	1913.452148
4568.168385	1.467759	0.633103	3435.518066
4568.169278	1.432218	0.633103	4714.488770
4568.170203	1.395916	0.633103	6005.710449
4568.171270	1.355834	0.633103	7452.384766
4568.172212	1.321776	0.633103	8697.498047
4568.173081	0.800339	0.633103	9392.993164
4568.174133	0.093842	0.633103	9491.714844
4568.175158	0.086906	0.633103	9580.792969
4568.176038	0.087059	0.633103	9657.405273
4568.177017	0.087111	0.633103	9742.686523
4568.178067	0.087184	0.633103	9834.229492
4568.178988	0.086931	0.633103	9914.292969
4568.179844	0.087107	0.633103	9988.856445
4568.180914	0.087187	0.633103	10082.147461
4568.181923	0.087045	0.633103	10169.975586
4568.182793	0.087004	0.633103	10245.668945
4569.216443	0.994969	0.600083	422.862030
4569.217524	1.481620	0.600083	2024.493042
4569.218517	1.466327	0.600083	3480.555664
4569.219412	1.431218	0.600083	4761.496094
4569.220404	1.392510	0.600083	6142.865723
4569.221458	1.352974	0.600083	7568.899902
4569.222367	1.320022	0.600083	8768.799805
4569.223238	0.704605	0.600083	9382.510742
4569.224354	0.089824	0.600083	9482.754883
4569.225325	0.087114	0.600083	9567.342773
4569.226190	0.086997	0.600083	9642.595703
4569.227259	0.087078	0.600083	9735.681641
4569.228283	0.087023	0.600083	9824.792969
4569.229169	0.087037	0.600083	9901.908203
4569.230091	0.087030	0.600083	9982.149414
4569.231149	0.087191	0.600083	10074.397461
4569.232090	0.087085	0.600083	10156.344727
4569.232950	0.087085	0.600083	10231.237305
4570.251281	1.055435	0.632007	537.216187
4570.252195	1.480569	0.632007	1890.456177
4570.253067	1.473973	0.632007	3175.760986
4570.254084	1.435408	0.632007	4635.570801
4570.255081	1.395381	0.632007	6026.765625
4570.255968	1.361569	0.632007	7234.477051
4570.256833	1.329064	0.632007	8384.117187
4570.257932	0.823890	0.632007	9289.572266
4570.258830	0.101689	0.632007	9380.889648
4570.259694	0.086796	0.632007	9455.880859
4570.260663	0.087140	0.632007	9540.319336
4570.261678	0.087103	0.632007	9628.729492
4570.262564	0.087015	0.632007	9705.825195
4570.263429	0.087140	0.632007	9781.201172
4570.264510	0.087034	0.632007	9875.284180
4570.265442	0.087052	0.632007	9956.416992
4570.266316	0.087074	0.632007	10032.519531
4570.267288	0.087103	0.632007	10117.183594
4571.302838	0.979373	0.619822	412.315857
4571.303904	1.480250	0.619822	1990.262695
4571.304921	1.466506	0.619822	3481.699707
4571.305797	1.431881	0.619822	4736.027344
4571.306759	1.393989	0.619822	6077.044922
4571.307846	1.353962	0.619822	7548.802246
4571.308742	1.320945	0.619822	8732.369141
4571.309619	0.739830	0.619822	9381.200195
4571.310703	0.091117	0.619822	9479.970703
4571.311700	0.086997	0.619822	9566.707031
4571.312597	0.087070	0.619822	9644.809570
4571.313593	0.086953	0.619822	9731.415039
4571.314660	0.086986	0.619822	9824.229492
4571.315548	0.086924	0.619822	9901.417969
4571.316414	0.087008	0.619822	9976.766602
4571.317510	0.087114	0.619822	10072.244141
4571.318472	0.087026	0.619822	10155.963867
4571.319342	0.086997	0.619822	10231.651367
4572.337174	1.057581	0.642223	530.905457
4572.338167	1.483341	0.642223	2003.863037
4572.339061	1.470128	0.642223	3318.157715
4572.340059	1.431958	0.642223	4747.251953
4572.341110	1.390345	0.642223	6208.504883
4572.342013	1.355918	0.642223	7432.898926
4572.342878	1.323757	0.642223	8577.949219
4572.343971	0.644022	0.642223	9281.865234
4572.344967	0.089623	0.642223	9371.129883
4572.345846	0.086957	0.642223	9447.564453
4572.346852	0.087081	0.642223	9535.167969
4572.347899	0.087001	0.642223	9626.257812
4572.348766	0.086913	0.642223	9701.611328
4572.349640	0.087023	0.642223	9777.668945
4572.350739	0.087067	0.642223	9873.355469
4572.351704	0.086935	0.642223	9957.248047
4572.352571	0.087052	0.642223	10032.721680
4572.353602	0.087206	0.642223	10122.630859
4573.387311	1.088796	0.640455	578.150879
4573.388277	1.483253	0.640455	2010.973389
4573.389144	1.471091	0.640455	3286.409668
4573.390212	1.429852	0.640455	4813.491699
4573.391237	1.389470	0.640455	6237.698730
4573.392126	1.355823	0.640455	7443.025391
4573.392996	1.324200	0.640455	8595.080078
4573.394054	0.672111	0.640455	9306.172852
4573.394994	0.091710	0.640455	9392.380859
4573.395865	0.086971	0.640455	9468.132812
4573.396790	0.087059	0.640455	9548.663086
4573.397867	0.087107	0.640455	9642.477539
4573.398745	0.087023	0.640455	9718.883789
4573.399611	0.086957	0.640455	9794.188477
4573.400632	0.087283	0.640455	9883.303711
4573.401593	0.086997	0.640455	9966.908203
4573.402466	0.087034	0.640455	10042.888672
4573.403346	0.087100	0.640455	10119.536133
4574.423077	1.050249	0.667819	557.682190
4574.424135	1.483656	0.667819	2127.390137
4574.425056	1.465876	0.667819	3477.462402
4574.425920	1.431075	0.667819	4713.911621
4574.427022	1.389020	0.667819	6244.611328
4574.428025	1.350978	0.667819	7599.642090
4574.428907	1.319275	0.667819	8763.242187
4574.429919	0.574113	0.667819	9344.244141
4574.430971	0.088553	0.667819	9437.402344
4574.431862	0.086979	0.667819	9514.900391
4574.432718	0.087114	0.667819	9589.469727
4574.433814	0.087114	0.667819	9684.947266
4574.434775	0.087023	0.667819	9768.576172
4574.435638	0.086997	0.667819	9843.654297
4574.436708	0.087122	0.667819	9936.874023
4574.437743	0.086993	0.667819	10026.912109
4574.438629	0.086997	0.667819	10103.991211
4574.439556	0.087198	0.667819	10184.824219
4575.472575	1.001726	0.639049	427.737030
4575.473657	1.481587	0.639049	2030.814087
4575.474631	1.466667	0.639049	3459.348145
4575.475515	1.432353	0.639049	4725.548828
4575.476518	1.392689	0.639049	6122.416016
4575.477587	1.353204	0.639049	7568.991211
4575.478477	1.320575	0.639049	8744.302734
4575.479375	0.714298	0.639049	9385.742187
4575.480478	0.089802	0.639049	9484.793945
4575.481426	0.086818	0.639049	9567.096680
4575.482291	0.087048	0.639049	9642.393555
4575.483337	0.087081	0.639049	9733.480469
4575.484368	0.087074	0.639049	9823.253906
4575.485261	0.086993	0.639049	9900.939453
4575.486187	0.087103	0.639049	9981.596680
4575.487252	0.087103	0.639049	10074.361328
4575.488182	0.087059	0.639049	10155.326172
4575.489044	0.086986	0.639049	10230.308594
4576.508356	0.986624	0.695530	423.261505
4576.509221	1.471615	0.695530	1696.208374
4576.510253	1.472003	0.695530	3215.315430
4576.511235	1.434595	0.695530	4624.087402
4576.512117	1.399493	0.695530	5858.440430
4576.512984	1.364868	0.695530	7041.781250
4576.514102	1.326584	0.695530	8524.902344
4576.514999	0.932003	0.695530	9360.909180
4576.515856	0.118165	0.695530	9462.176758
4576.516945	0.087056	0.695530	9556.980469
4576.517905	0.086957	0.695530	9640.458984
4576.518768	0.086931	0.695530	9715.480469
4576.519625	0.087059	0.695530	9790.089844
4576.520727	0.086964	0.695530	9885.923828
4576.521628	0.086865	0.695530	9964.189453
4576.522504	0.086843	0.695530	10040.263672
4576.523486	0.087151	0.695530	10125.845703
4576.524476	0.086920	0.695530	10211.896484
4577.556510	1.072460	0.640177	545.882019
4577.557529	1.483685	0.640177	2057.757324
4577.558426	1.468806	0.640177	3375.276367
4577.559395	1.431090	0.640177	4762.002930
4577.560461	1.388906	0.640177	6242.577148
4577.561394	1.353878	0.640177	7505.745605
4577.562262	1.321864	0.640177	8653.123047
4577.563355	0.569026	0.640177	9275.068359
4577.564352	0.088466	0.640177	9363.268555
4577.565243	0.086975	0.640177	9440.763672
4577.566224	0.087085	0.640177	9526.194336
4577.567283	0.086927	0.640177	9618.250977
4577.568188	0.087166	0.640177	9697.135742
4577.569049	0.087136	0.640177	9772.160156
4577.570139	0.087173	0.640177	9867.178711
4577.571102	0.087074	0.640177	9951.031250
4577.571968	0.086968	0.640177	10026.345703
4577.572974	0.087279	0.640177	10114.148437
4578.594785	1.023373	0.710600	458.471069
4578.595705	1.476958	0.710600	1817.272461
4578.596582	1.474710	0.710600	3110.592773
4578.597537	1.438231	0.710600	4484.103516
4578.598484	1.400907	0.710600	5810.762207
4578.599377	1.366952	0.710600	7031.450195
4578.600337	1.332451	0.710600	8310.603516
4578.601288	1.040024	0.710600	9299.666992
4578.602220	0.130247	0.710600	9421.056641
4578.603093	0.086818	0.710600	9496.848633
4578.604046	0.086953	0.710600	9579.714844
4578.604994	0.086957	0.710600	9662.149414
4578.605878	0.087019	0.710600	9739.074219
4578.606751	0.087063	0.710600	9815.080078
4578.607766	0.087030	0.710600	9903.416016
4578.608685	0.086957	0.710600	9983.329102
4578.609568	0.087067	0.710600	10060.208984
4578.610462	0.087048	0.710600	10138.030273
4579.641282	0.990912	0.656898	430.055725
4579.642147	1.471593	0.656898	1702.983643
4579.643249	1.469561	0.656898	3322.439453
4579.644232	1.431910	0.656898	4730.007324
4579.645099	1.397325	0.656898	5941.488281
4579.646128	1.358767	0.656898	7339.659668
4579.647181	1.321062	0.656898	8730.738281
4579.648074	0.735524	0.656898	9387.560547
4579.648962	0.097657	0.656898	9474.280273
4579.650045	0.087004	0.656898	9568.505859
4579.651006	0.086927	0.656898	9652.042969
4579.651865	0.087023	0.656898	9726.795898
4579.652875	0.087122	0.656898	9814.789062
4579.653927	0.087019	0.656898	9906.333008
4579.654797	0.087048	0.656898	9982.065430
4579.655723	0.087103	0.656898	10062.722656
4579.656795	0.087235	0.656898	10156.238281
4579.657738	0.087067	0.656898	10238.341797
4580.680667	1.021040	0.705230	462.531158
4580.681544	1.474504	0.705230	1755.671387
4580.682523	1.472684	0.705230	3197.429443
4580.683580	1.432141	0.705230	4711.202637
4580.684498	1.395703	0.705230	5992.458008
4580.685363	1.361565	0.705230	7170.211914
4580.686488	1.322234	0.705230	8657.724609
4580.687457	0.700854	0.705230	9336.852539
4580.688333	0.095167	0.705230	9420.218750
4580.689352	0.086997	0.705230	9508.869141
4580.690391	0.087008	0.705230	9599.270508
4580.691285	0.086982	0.705230	9677.033203
4580.692166	0.087129	0.705230	9753.793945
4580.693247	0.087122	0.705230	9847.972656
4580.694202	0.086982	0.705230	9931.041016
4580.695062	0.087070	0.705230	10005.921875
4580.696117	0.087209	0.705230	10097.927734
4580.697144	0.087114	0.705230	10187.394531
4581.726137	0.994720	0.687780	422.756195
4581.727201	1.481832	0.687780	1999.425781
4581.728096	1.470505	0.687780	3315.528076
4581.728967	1.436594	0.687780	4566.801758
4581.729948	1.398270	0.687780	5938.504883
4581.730888	1.361854	0.687780	7218.647949
4581.731809	1.328577	0.687780	8442.267578
4581.732696	1.010790	0.687780	9338.837891
4581.733745	0.106816	0.687780	9450.888672
4581.734641	0.087045	0.687780	9528.880859
4581.735516	0.087092	0.687780	9605.086914
4581.736464	0.087041	0.687780	9687.601562
4581.737446	0.087078	0.687780	9773.111328
4581.738361	0.087056	0.687780	9852.767578
4581.739228	0.087151	0.687780	9928.327148
4581.740276	0.087103	0.687780	10019.611328
4581.741150	0.086997	0.687780	10095.646484
4581.742016	0.087059	0.687780	10171.040039
4582.766116	1.064506	0.699458	548.220398
4582.767128	1.483612	0.699458	2049.635742
4582.768002	1.469451	0.699458	3333.935547
4582.768988	1.431006	0.699458	4744.907227
4582.770039	1.389613	0.699458	6205.390625
4582.770951	1.354973	0.699458	7441.125977
4582.771825	1.322358	0.699458	8596.867187
4582.772931	0.594247	0.699458	9254.104492
4582.773902	0.089132	0.699458	9340.651367
4582.774782	0.087133	0.699458	9417.328125
4582.775777	0.087217	0.699458	9504.108398
4582.776838	0.086949	0.699458	9596.361328
4582.777723	0.086968	0.699458	9673.328125
4582.778599	0.087133	0.699458	9749.656250
4582.779690	0.087081	0.699458	9844.662109
4582.780653	0.086986	0.699458	9928.429687
4582.781511	0.087111	0.699458	10003.170898
4582.782575	0.087228	0.699458	10095.981445
4583.811009	0.982903	0.711527	420.682404
4583.811922	1.471560	0.711527	1764.216675
4583.813004	1.468356	0.711527	3352.977539
4583.813958	1.431511	0.711527	4718.639160
4583.814832	1.396893	0.711527	5939.523926
4583.815867	1.357753	0.711527	7344.797852
4583.816895	1.320751	0.711527	8702.529297
4583.817796	0.744741	0.711527	9373.541016
4583.818749	0.097335	0.711527	9466.301758
4583.819800	0.087012	0.711527	9557.750977
4583.820737	0.087074	0.711527	9639.338867
4583.821604	0.087052	0.711527	9714.812500
4583.822669	0.087133	0.711527	9807.608398
4583.823679	0.087136	0.711527	9895.616211
4583.824568	0.086975	0.711527	9972.937500
4583.825547	0.087114	0.711527	10058.222656
4583.826598	0.087166	0.711527	10149.833984
4583.827504	0.087136	0.711527	10228.779297
4584.851389	0.977985	0.709021	413.687500
4584.852429	1.479459	0.709021	1952.325195
4584.853447	1.467034	0.709021	3445.765625
4584.854342	1.431724	0.709021	4727.158203
4584.855209	1.397146	0.709021	5938.483887
4584.856278	1.357306	0.709021	7389.443848
4584.857217	1.323274	0.709021	8631.998047
4584.858094	0.861786	0.709021	9387.784180
4584.859022	0.107498	0.709021	9487.541992
4584.860102	0.086971	0.709021	9581.470703
4584.860978	0.086938	0.709021	9657.628906
4584.861844	0.086938	0.709021	9732.917969
4584.862879	0.087125	0.709021	9823.092773
4584.863838	0.087103	0.709021	9906.625000
4584.864715	0.087026	0.709021	9982.947266
4584.865639	0.086971	0.709021	10063.308594
4584.866700	0.087070	0.709021	10155.690430
4584.867592	0.087037	0.709021	10233.328125
4585.895500	1.113702	0.721170	635.924072
4585.896556	1.484769	0.721170	2203.840332
4585.897447	1.465393	0.721170	3509.505615
4585.898347	1.428959	0.721170	4795.568359
4585.899437	1.387196	0.721170	6307.612305
4585.900388	1.351670	0.721170	7593.050293
4585.901251	1.320509	0.721170	8732.649414
4585.902305	0.566349	0.721170	9329.581055
4585.903321	0.088656	0.721170	9419.655273
4585.904202	0.087023	0.721170	9496.322266
4585.905147	0.087092	0.721170	9578.624023
4585.906208	0.087118	0.721170	9671.055664
4585.907134	0.086949	0.721170	9751.571289
4585.907992	0.087173	0.721170	9826.365234
4585.909019	0.087195	0.721170	9915.914062
4585.910049	0.087048	0.721170	10005.574219
4585.910933	0.087283	0.721170	10082.732422
4585.911892	0.087136	0.721170	10166.295898
4586.937303	1.009343	0.726874	442.092346
4586.938184	1.473384	0.726874	1740.143555
4586.939046	1.475149	0.726874	3011.721924
4586.940101	1.436858	0.726874	4527.606934
4586.940984	1.401229	0.726874	5764.892578
4586.941869	1.368087	0.726874	6975.649414
4586.942868	1.331741	0.726874	8306.058594
4586.943811	1.039739	0.726874	9286.532227
4586.944744	0.130422	0.726874	9408.215820
4586.945612	0.086913	0.726874	9483.656250
4586.946655	0.086990	0.726874	9574.386719
4586.947541	0.087026	0.726874	9651.492187
4586.948416	0.087089	0.726874	9727.694336
4586.949408	0.087195	0.726874	9814.191406
4586.950363	0.087114	0.726874	9897.385742
4586.951289	0.086924	0.726874	9977.876953
4586.952144	0.087012	0.726874	10052.271484
4586.953151	0.087114	0.726874	10139.995117
4587.980734	0.982416	0.715664	417.526703
4587.981705	1.472604	0.715664	1847.424927
4587.982769	1.466942	0.715664	3408.251465
4587.983708	1.430467	0.715664	4751.460449
4587.984575	1.395139	0.715664	5961.045898
4587.985683	1.354497	0.715664	7461.828613
4587.986678	1.318429	0.715664	8773.665039
4587.987586	0.661893	0.715664	9374.664062
4587.988570	0.092505	0.715664	9465.688477
4587.989631	0.087173	0.715664	9558.178711
4587.990529	0.087019	0.715664	9636.322266
4587.991392	0.087078	0.715664	9711.470703
4587.992492	0.087122	0.715664	9807.304687
4587.993455	0.087114	0.715664	9891.195312
4587.994317	0.087103	0.715664	9966.278320
4587.995388	0.087180	0.715664	10059.648437
4587.996423	0.087136	0.715664	10149.833984
4587.997304	0.087063	0.715664	10226.536133
4589.022732	1.049326	0.747084	525.712341
4589.023635	1.479254	0.747084	1861.478760
4589.024499	1.472688	0.747084	3133.881104
4589.025609	1.430995	0.747084	4722.285156
4589.026605	1.391807	0.747084	6108.524414
4589.027504	1.358174	0.747084	7329.522461
4589.028499	1.322651	0.747084	8645.560547
4589.029553	0.625177	0.747084	9304.497070
4589.030444	0.091252	0.747084	9385.802734
4589.031323	0.087151	0.747084	9462.408203
4589.032405	0.087045	0.747084	9556.590820
4589.033354	0.087081	0.747084	9639.231445
4589.034219	0.087114	0.747084	9714.584961
4589.035265	0.087158	0.747084	9805.751953
4589.036297	0.087089	0.747084	9895.626953
4589.037178	0.087023	0.747084	9972.293945
4589.038096	0.087177	0.747084	10052.322266
4589.039183	0.087114	0.747084	10147.015625
4590.064572	0.979376	0.727724	416.234863
4590.065596	1.477815	0.727724	1929.517334
4590.066573	1.468733	0.727724	3364.469482
4590.067452	1.434232	0.727724	4625.159668
4590.068336	1.398157	0.727724	5861.130371
4590.069443	1.358306	0.727724	7364.774902
4590.070337	1.325380	0.727724	8549.664062
4590.071206	0.948241	0.727724	9373.685547
4590.072253	0.104308	0.727724	9482.895508
4590.073218	0.087048	0.727724	9566.897461
4590.074078	0.086946	0.727724	9641.670898
4590.074944	0.087133	0.727724	9717.127930
4590.076067	0.087059	0.727724	9814.895508
4590.076972	0.087019	0.727724	9893.647461
4590.077835	0.087100	0.727724	9968.814453
4590.078886	0.087151	0.727724	10060.410156
4590.079853	0.087015	0.727724	10144.553711
4590.080771	0.086935	0.727724	10224.360352
4591.108144	1.057101	0.747644	574.005798
4591.109198	1.483597	0.747644	2137.717529
4591.110114	1.465338	0.747644	3479.967285
4591.110978	1.430321	0.747644	4715.764648
4591.112055	1.388708	0.747644	6211.403809
4591.113059	1.350725	0.747644	7567.531738
4591.113962	1.318923	0.747644	8758.519531
4591.114963	0.573486	0.747644	9332.579102
4591.116012	0.088308	0.747644	9425.213867
4591.116899	0.087089	0.747644	9502.461914
4591.117780	0.087166	0.747644	9579.254883
4591.118881	0.087096	0.747644	9675.147461
4591.119835	0.087015	0.747644	9758.160156
4591.120708	0.087045	0.747644	9834.150391
4591.121748	0.087155	0.747644	9924.791016
4591.122792	0.087078	0.747644	10015.700195
4591.123679	0.087026	0.747644	10092.892578
4591.124613	0.087169	0.747644	10174.308594
4592.149971	1.004883	0.736837	441.143555
4592.150850	1.473618	0.736837	1736.453857
4592.151716	1.475665	0.736837	3014.379883
4592.152773	1.436689	0.736837	4532.960937
4592.153668	1.400951	0.736837	5786.812012
4592.154549	1.367578	0.736837	6991.648437
4592.155515	1.332792	0.736837	8279.125000
4592.156495	1.040094	0.736837	9298.416992
4592.157425	0.130616	0.736837	9419.890625
4592.158294	0.086836	0.736837	9495.350586
4592.159336	0.087081	0.736837	9586.088867
4592.160222	0.087001	0.736837	9663.171875
4592.161088	0.087235	0.736837	9738.717773
4592.162017	0.087019	0.736837	9819.558594
4592.163001	0.087129	0.736837	9905.292969
4592.163916	0.086990	0.736837	9984.888672
4592.164793	0.087074	0.736837	10061.252930
4592.165846	0.087151	0.736837	10153.022461
4593.193405	0.981160	0.750633	416.992828
4593.194323	1.471447	0.750633	1767.780640
4593.195403	1.468579	0.750633	3353.846191
4593.196351	1.431537	0.750633	4710.943359
4593.197213	1.397252	0.750633	5915.375000
4593.198267	1.357969	0.750633	7346.673828
4593.199297	1.321000	0.750633	8707.303711
4593.200182	0.767292	0.750633	9386.357422
4593.201119	0.099207	0.750633	9479.313477
4593.202197	0.087048	0.750633	9573.151367
4593.203114	0.087048	0.750633	9652.974609
4593.203986	0.086986	0.750633	9728.826172
4593.205037	0.087213	0.750633	9820.487305
4593.206055	0.087041	0.750633	9909.094727
4593.206946	0.087004	0.750633	9986.615234
4593.207922	0.087272	0.750633	10071.791992
4593.208986	0.087125	0.750633	10164.493164
4593.209898	0.087030	0.750633	10243.864258
4594.235453	1.099574	0.750452	593.769958
4594.236374	1.482144	0.750452	1958.824219
4594.237240	1.470905	0.750452	3232.627441
4594.238331	1.429589	0.750452	4792.308594
4594.239343	1.389745	0.750452	6198.730469
4594.240221	1.356789	0.750452	7389.991699
4594.241231	1.320985	0.750452	8724.186523
4594.242286	0.562181	0.750452	9317.288086
4594.243179	0.090114	0.750452	9397.759766
4594.244036	0.087129	0.750452	9472.429687
4594.245134	0.087177	0.750452	9568.149414
4594.246087	0.086993	0.750452	9651.053711
4594.246967	0.087096	0.750452	9727.698242
4594.247958	0.087220	0.750452	9814.133789
4594.249007	0.087074	0.750452	9905.474609
4594.249899	0.087118	0.750452	9983.183594
4594.250768	0.087103	0.750452	10058.875977
4594.251873	0.087118	0.750452	10155.141602
4595.277749	0.999642	0.746376	420.849426
4595.278883	1.482682	0.746376	2102.210693
4595.279791	1.467191	0.746376	3434.420410
4595.280664	1.432753	0.746376	4685.213379
4595.281740	1.390752	0.746376	6181.662598
4595.282718	1.353995	0.746376	7505.870117
4595.283592	1.322329	0.746376	8661.585937
4595.284470	0.799039	0.746376	9363.142578
4595.285576	0.092157	0.746376	9465.068359
4595.286462	0.086942	0.746376	9542.098633
4595.287325	0.087158	0.746376	9617.316406
4595.288394	0.087177	0.746376	9710.507812
4595.289364	0.087015	0.746376	9794.913086
4595.290243	0.087037	0.746376	9871.418945
4595.291100	0.087103	0.746376	9946.066406
4595.292229	0.087122	0.746376	10044.426758
4595.293108	0.087045	0.746376	10120.939453
4595.293972	0.087074	0.746376	10196.170898
4596.320187	0.977040	0.760108	413.287811
4596.321234	1.478002	0.760108	1960.755615
4596.322265	1.466151	0.760108	3472.357422
4596.323150	1.431039	0.760108	4738.826660
4596.324080	1.394275	0.760108	6035.501953
4596.325151	1.354116	0.760108	7485.760254
4596.326086	1.320300	0.760108	8720.241211
4596.326962	0.759976	0.760108	9385.979492
4596.328005	0.092281	0.760108	9482.229492
4596.329029	0.086938	0.760108	9571.254883
4596.329918	0.086975	0.760108	9648.576172
4596.330883	0.087191	0.760108	9732.715820
4596.331937	0.087045	0.760108	9824.460937
4596.332864	0.087030	0.760108	9905.137695
4596.333725	0.087180	0.760108	9980.200195
4596.334810	0.087195	0.760108	10074.806641
4596.335799	0.087048	0.760108	10160.897461
4596.336688	0.086964	0.760108	10238.208984
4597.363128	0.975176	0.750980	409.573822
4597.364093	1.472186	0.750980	1830.233643
4597.365158	1.468070	0.750980	3393.728516
4597.366071	1.431669	0.750980	4700.841797
4597.366940	1.396769	0.750980	5914.633789
4597.367996	1.357383	0.750980	7348.030273
4597.369014	1.320670	0.750980	8692.472656
4597.369911	0.760012	0.750980	9374.203125
4597.370883	0.097661	0.750980	9469.129883
4597.371930	0.087213	0.750980	9560.442383
4597.372843	0.087041	0.750980	9639.911133
4597.373702	0.087144	0.750980	9714.767578
4597.374792	0.087169	0.750980	9809.782227
4597.375783	0.086964	0.750980	9895.963867
4597.376668	0.087004	0.750980	9972.962891
4597.377635	0.087133	0.750980	10057.219727
4597.378679	0.087096	0.750980	10148.147461
4597.379571	0.087133	0.750980	10225.870117
4598.405587	1.014690	0.765526	456.610474
4598.406470	1.474226	0.765526	1758.352173
4598.407334	1.474999	0.765526	3032.750977
4598.408446	1.434148	0.765526	4627.523437
4598.409354	1.398051	0.765526	5896.953125
4598.410225	1.364960	0.765526	7085.833008
4598.411238	1.329038	0.765526	8432.148437
4598.412254	0.866525	0.765526	9312.537109
4598.413142	0.106805	0.765526	9407.379883
4598.413997	0.086913	0.765526	9481.690430
4598.415050	0.087100	0.765526	9573.406250
4598.415977	0.087023	0.765526	9654.076172
4598.416853	0.087041	0.765526	9730.324219
4598.417825	0.087100	0.765526	9814.985352
4598.418838	0.087063	0.765526	9903.179687
4598.419729	0.087008	0.765526	9980.704102
4598.420590	0.086986	0.765526	10055.599609
4598.421676	0.087078	0.765526	10150.166016
4599.448587	1.052399	0.754178	530.408936
4599.449475	1.478566	0.754178	1843.375244
4599.450410	1.472014	0.754178	3219.708496
4599.451469	1.431185	0.754178	4735.333984
4599.452410	1.393916	0.754178	6047.008789
4599.453277	1.360763	0.754178	7226.790039
4599.454340	1.322889	0.754178	8633.021484
4599.455367	0.653862	0.754178	9304.538086
4599.456248	0.093215	0.754178	9386.661133
4599.457237	0.086997	0.754178	9472.701172
4599.458285	0.087019	0.754178	9563.897461
4599.459200	0.086968	0.754178	9643.472656
4599.460057	0.087111	0.754178	9718.125977
4599.461109	0.087158	0.754178	9809.816406
4599.462122	0.087008	0.754178	9897.955078
4599.463014	0.086913	0.754178	9975.481445
4599.463985	0.087125	0.754178	10060.080078
4599.465038	0.087034	0.754178	10151.726562
4600.490527	1.054900	0.757171	553.822449
4600.491586	1.483165	0.757171	2124.494385
4600.492505	1.465485	0.757171	3471.274902
4600.493372	1.429973	0.757171	4711.061523
4600.494486	1.388009	0.757171	6257.303711
4600.495478	1.350410	0.757171	7596.910645
4600.496363	1.318707	0.757171	8763.966797
4600.497387	0.563452	0.757171	9340.941406
4600.498425	0.088440	0.757171	9432.742187
4600.499302	0.087012	0.757171	9509.051758
4600.500181	0.087107	0.757171	9585.619141
4600.501287	0.087129	0.757171	9681.983398
4600.502236	0.087092	0.757171	9764.633789
4600.503096	0.086986	0.757171	9839.441406
4600.504117	0.087092	0.757171	9928.362305
4600.505156	0.087052	0.757171	10018.809570
4600.506044	0.087092	0.757171	10096.147461
4600.506975	0.087059	0.757171	10177.199219
4601.532363	0.996240	0.769856	433.364502
4601.533229	1.472164	0.769856	1708.258789
4601.534221	1.473201	0.769856	3169.673828
4601.535238	1.433848	0.769856	4627.896484
4601.536124	1.398746	0.769856	5867.185547
4601.536987	1.364806	0.769856	7045.013184
4601.538061	1.326819	0.769856	8470.016602
4601.538993	0.926634	0.769856	9333.639648
4601.539871	0.114858	0.769856	9434.485352
4601.540839	0.087030	0.769856	9518.730469
4601.541850	0.086997	0.769856	9606.684570
4601.542735	0.087100	0.769856	9683.767578
4601.543594	0.086938	0.769856	9758.447266
4601.544674	0.087056	0.769856	9852.467773
4601.545614	0.086927	0.769856	9934.179687
4601.546488	0.086971	0.769856	10010.192383
4601.547429	0.087056	0.769856	10092.111328
4601.548447	0.087056	0.769856	10180.734375
4602.575804	0.981475	0.761228	417.126709
4602.576733	1.471370	0.761228	1784.029053
4602.577814	1.467506	0.761228	3370.403320
4602.578764	1.430834	0.761228	4729.695312
4602.579636	1.396077	0.761228	5947.074219
4602.580698	1.356215	0.761228	7387.374023
4602.581732	1.319198	0.761228	8751.424805
4602.582627	0.700378	0.761228	9378.263672
4602.583594	0.095101	0.761228	9470.226562
4602.584640	0.087187	0.761228	9561.424805
4602.585565	0.087122	0.761228	9642.012695
4602.586426	0.087023	0.761228	9716.939453
4602.587496	0.087239	0.761228	9810.285156
4602.588484	0.086993	0.761228	9896.234375
4602.589369	0.087107	0.761228	9973.324219
4602.590361	0.087257	0.761228	10059.882812
4602.591415	0.087114	0.761228	10151.701172
4602.592321	0.087026	0.761228	10230.546875
4603.617797	1.043174	0.780036	518.457397
4603.618720	1.479650	0.780036	1884.174072
4603.619593	1.472325	0.780036	3169.514160
4603.620685	1.430651	0.780036	4731.784668
4603.621693	1.390961	0.780036	6133.873047
4603.622590	1.357350	0.780036	7351.416016
4603.623564	1.322508	0.780036	8639.539062
4603.624618	0.621738	0.780036	9294.851562
4603.625534	0.090784	0.780036	9378.009766
4603.626393	0.087015	0.780036	9452.755859
4603.627474	0.087100	0.780036	9546.910156
4603.628469	0.087008	0.780036	9633.483398
4603.629346	0.087052	0.780036	9709.828125
4603.630350	0.087231	0.780036	9797.408203
4603.631396	0.087019	0.780036	9888.429687
4603.632283	0.087001	0.780036	9965.599609
4603.633139	0.087103	0.780036	10040.160156
4603.634249	0.087140	0.780036	10136.885742
4604.658629	0.989561	0.776101	428.479706
4604.659503	1.472530	0.776101	1715.471436
4604.660469	1.473530	0.776101	3138.901855
4604.661506	1.434067	0.776101	4626.029785
4604.662384	1.399003	0.776101	5854.354004
4604.663244	1.365780	0.776101	7028.924805
4604.664316	1.327504	0.776101	8452.008789
4604.665258	0.938152	0.776101	9335.748047
4604.666124	0.117872	0.776101	9437.825195
4604.667083	0.086971	0.776101	9521.230469
4604.668112	0.087111	0.776101	9610.867187
4604.669010	0.086949	0.776101	9688.948242
4604.669878	0.087063	0.776101	9764.518555
4604.670903	0.087206	0.776101	9853.904297
4604.671851	0.086916	0.776101	9936.300781
4604.672723	0.087191	0.776101	10012.331055
4604.673624	0.087136	0.776101	10090.840820
4604.674712	0.087026	0.776101	10185.525391
4605.703191	1.028232	0.758166	532.624390
4605.704250	1.482653	0.758166	2102.753418
4605.705182	1.465562	0.758166	3468.656738
4605.706044	1.430643	0.758166	4701.871094
4605.707105	1.389705	0.758166	6176.347656
4605.708127	1.351794	0.758166	7557.881836
4605.709000	1.319799	0.758166	8710.066406
4605.709985	0.641697	0.758166	9342.137695
4605.711027	0.089136	0.758166	9435.017578
4605.711936	0.086986	0.758166	9514.087891
4605.712804	0.087063	0.758166	9589.658203
4605.713901	0.087140	0.758166	9685.250977
4605.714887	0.087026	0.758166	9771.058594
4605.715781	0.086924	0.758166	9848.768555
4605.716757	0.087004	0.758166	9933.684570
4605.717809	0.087136	0.758166	10025.351562
4605.718714	0.086920	0.758166	10104.014648
4605.719576	0.087089	0.758166	10179.084961
4606.745045	1.001283	0.771561	442.567047
4606.745915	1.472889	0.771561	1723.980835
4606.746949	1.470311	0.771561	3244.282715
4606.747980	1.430405	0.771561	4719.030273
4606.748874	1.395352	0.771561	5966.474609
4606.749840	1.359196	0.771561	7279.457520
4606.750898	1.320985	0.771561	8677.059570
4606.751816	0.738666	0.771561	9355.154297
4606.752685	0.097072	0.771561	9439.509766
4606.753766	0.087118	0.771561	9533.684570
4606.754755	0.086949	0.771561	9619.677734
4606.755642	0.086982	0.771561	9696.831055
4606.756621	0.087103	0.771561	9782.105469
4606.757683	0.086949	0.771561	9874.445312
4606.758590	0.087037	0.771561	9953.388672
4606.759453	0.086986	0.771561	10028.458008
4606.760543	0.087235	0.771561	10123.543945
4606.761530	0.086990	0.771561	10209.402344
4607.787064	1.103009	0.759302	606.654968
4607.788069	1.484396	0.759302	2098.472656
4607.788962	1.467319	0.759302	3408.788574
4607.789828	1.431921	0.759302	4648.832520
4607.790937	1.390012	0.759302	6190.355957
4607.791843	1.355552	0.759302	7418.485840
4607.792721	1.324109	0.759302	8581.053711
4607.793726	0.744840	0.759302	9329.618164
4607.794728	0.091395	0.759302	9421.196289
4607.795618	0.086825	0.759302	9498.470703
4607.796481	0.086891	0.759302	9573.457031
4607.797578	0.086946	0.759302	9668.836914
4607.798469	0.087048	0.759302	9746.397461
4607.799336	0.086960	0.759302	9821.791992
4607.800334	0.086935	0.759302	9908.552734
4607.801326	0.086924	0.759302	9994.781250
4607.802197	0.086982	0.759302	10070.542969
4607.803056	0.086993	0.759302	10145.270508
4608.830486	1.062393	0.778957	537.570679
4608.831438	1.481180	0.778957	1947.654419
4608.832305	1.471501	0.778957	3223.446289
4608.833360	1.430900	0.778957	4733.045410
4608.834392	1.390210	0.778957	6167.742187
4608.835278	1.356720	0.778957	7369.795898
4608.836245	1.322300	0.778957	8648.459961
4608.837298	0.618746	0.778957	9300.000000
4608.838226	0.090564	0.778957	9384.042969
4608.839082	0.086949	0.778957	9458.471680
4608.840136	0.087078	0.778957	9550.251953
4608.841154	0.086924	0.778957	9638.740234
4608.842038	0.086938	0.778957	9715.593750
4608.842997	0.086990	0.778957	9799.016602
4608.844045	0.086993	0.778957	9890.185547
4608.844960	0.087052	0.778957	9969.837891
4608.845830	0.087074	0.778957	10045.591797
4608.846921	0.087198	0.778957	10140.725586
4609.870864	1.056390	0.756209	528.195190
4609.871746	1.478145	0.756209	1831.918701
4609.872676	1.471476	0.756209	3200.391113
4609.873756	1.429702	0.756209	4744.469727
4609.874704	1.392744	0.756209	6064.791016
4609.875575	1.359514	0.756209	7248.927734
4609.876641	1.321373	0.756209	8657.511719
4609.877662	0.626440	0.756209	9297.107422
4609.878558	0.091556	0.756209	9379.141602
4609.879517	0.086997	0.756209	9462.572266
4609.880554	0.087001	0.756209	9552.791992
4609.881477	0.087089	0.756209	9633.174805
4609.882340	0.087070	0.756209	9708.316406
4609.883417	0.087136	0.756209	9802.162109
4609.884425	0.087034	0.756209	9889.891602
4609.885302	0.087004	0.756209	9966.194336
4609.886286	0.087100	0.756209	10051.900391
4609.887337	0.087133	0.756209	10143.476562
4610.916413	1.085303	0.771601	577.381042
4610.917461	1.483755	0.771601	2132.356201
4610.918346	1.466426	0.771601	3430.143066
4610.919292	1.429526	0.771601	4782.475098
4610.920373	1.387445	0.771601	6282.303223
4610.921315	1.351956	0.771601	7555.845215
4610.922178	1.320161	0.771601	8695.144531
4610.923265	0.555209	0.771601	9298.656250
4610.924278	0.088239	0.771601	9388.041992
4610.925146	0.086982	0.771601	9463.542969
4610.926102	0.087045	0.771601	9546.757812
4610.927155	0.086982	0.771601	9638.350586
4610.928076	0.087162	0.771601	9718.626953
4610.928944	0.087056	0.771601	9794.191406
4610.930019	0.087191	0.771601	9887.921875
4610.931019	0.086935	0.771601	9974.856445
4610.931911	0.086931	0.771601	10052.399414
4610.932897	0.087045	0.771601	10138.225586
4611.954621	0.983328	0.778521	421.847565
4611.955485	1.470831	0.778521	1692.645752
4611.956568	1.469784	0.778521	3284.421875
4611.957570	1.430746	0.778521	4718.029297
4611.958461	1.395787	0.778521	5961.675781
4611.959459	1.358694	0.778521	7317.652344
4611.960511	1.321014	0.778521	8707.359375
4611.961413	0.754959	0.778521	9388.332031
4611.962271	0.098932	0.778521	9473.215820
4611.963356	0.087030	0.778521	9567.643555
4611.964346	0.086982	0.778521	9653.755859
4611.965224	0.087107	0.778521	9730.235352
4611.966207	0.087085	0.778521	9815.839844
4611.967280	0.086975	0.778521	9909.164062
4611.968150	0.086916	0.778521	9984.781250
4611.969018	0.087059	0.778521	10060.348633
4611.970117	0.087096	0.778521	10156.067383
4611.971078	0.087092	0.778521	10239.762695
4613.001157	0.990326	0.761675	428.811157
4613.002031	1.472377	0.761675	1715.668457
4613.002895	1.475878	0.761675	2990.826660
4613.003949	1.436939	0.761675	4505.359863
4613.004850	1.401193	0.761675	5767.834473
4613.005731	1.367732	0.761675	6972.806152
4613.006668	1.333502	0.761675	8222.297852
4613.007668	1.068750	0.761675	9291.047852
4613.008597	0.136417	0.761675	9417.779297
4613.009458	0.086847	0.761675	9492.554687
4613.010491	0.086843	0.761675	9582.263672
4613.011372	0.087012	0.761675	9658.920898
4613.012233	0.086997	0.761675	9733.825195
4613.013094	0.086997	0.761675	9808.729492
4613.014139	0.086946	0.761675	9899.587891
4613.015034	0.086986	0.761675	9977.440430
4613.015905	0.087081	0.761675	10053.288086
4613.016899	0.087052	0.761675	10139.817383
4614.039051	1.033228	0.779375	523.846375
4614.040124	1.483118	0.779375	2115.231689
4614.041054	1.465038	0.779375	3477.716797
4614.041923	1.429779	0.779375	4720.194824
4614.043002	1.388452	0.779375	6218.334961
4614.044011	1.350271	0.779375	7580.758301
4614.044909	1.318440	0.779375	8764.716797
4614.045898	0.582861	0.779375	9341.166992
4614.046959	0.088400	0.779375	9434.958984
4614.047872	0.087096	0.779375	9514.477539
4614.048733	0.087092	0.779375	9589.463867
4614.049834	0.087209	0.779375	9685.481445
4614.050813	0.087056	0.779375	9770.708984
4614.051678	0.086964	0.779375	9845.932617
4614.052771	0.087191	0.779375	9941.232422
4614.053805	0.087103	0.779375	10031.296875
4614.054699	0.087030	0.779375	10109.101562
4614.055622	0.087045	0.779375	10189.443359
4615.086624	1.068318	0.746549	546.978760
4615.087553	1.480800	0.746549	1922.641602
4615.088417	1.471765	0.746549	3194.246582
4615.089496	1.430687	0.746549	4737.958008
4615.090503	1.390968	0.746549	6138.662598
4615.091391	1.357445	0.746549	7344.073730
4615.092382	1.322637	0.746549	8654.806641
4615.093435	0.614041	0.746549	9301.391602
4615.094343	0.090765	0.746549	9383.806641
4615.095199	0.087030	0.746549	9458.304687
4615.096280	0.087015	0.746549	9552.368164
4615.097277	0.086982	0.746549	9639.089844
4615.098146	0.087096	0.746549	9714.776367
4615.099130	0.087173	0.746549	9800.554687
4615.100182	0.087169	0.746549	9892.256836
4615.101089	0.086953	0.746549	9971.123047
4615.101951	0.087026	0.746549	10046.139648
4615.103040	0.087140	0.746549	10141.035156
4616.123851	1.004341	0.779682	442.914337
4616.124731	1.473622	0.779682	1739.701416
4616.125597	1.474783	0.779682	3016.863281
4616.126720	1.433818	0.779682	4627.041016
4616.127630	1.397435	0.779682	5898.707031
4616.128508	1.364161	0.779682	7096.440430
4616.129526	1.327888	0.779682	8448.230469
4616.130532	0.861002	0.779682	9314.398437
4616.131420	0.106249	0.779682	9408.747070
4616.132279	0.087019	0.779682	9483.496094
4616.133402	0.087158	0.779682	9581.375000
4616.134296	0.086920	0.779682	9659.082031
4616.135162	0.087015	0.779682	9734.437500
4616.136160	0.087316	0.779682	9821.578125
4616.137158	0.086960	0.779682	9908.364258
4616.138046	0.086957	0.779682	9985.582031
4616.138907	0.087063	0.779682	10060.542969
4616.140001	0.087107	0.779682	10155.837891
4617.171386	0.976655	0.747290	413.125183
4617.172414	1.476672	0.747290	1931.144287
4617.173456	1.466228	0.747290	3458.953857
4617.174342	1.431211	0.747290	4727.006836
4617.175246	1.394381	0.747290	5987.527344
4617.176350	1.353951	0.747290	7482.289551
4617.177300	1.319908	0.747290	8736.203125
4617.178165	0.757683	0.747290	9391.598633
4617.179208	0.092208	0.747290	9487.771484
4617.180234	0.087012	0.747290	9577.045898
4617.181123	0.087070	0.747290	9654.451172
4617.182072	0.087067	0.747290	9737.077148
4617.183122	0.087030	0.747290	9828.458984
4617.184044	0.086975	0.747290	9908.650391
4617.184914	0.087067	0.747290	9984.398437
4617.185978	0.087177	0.747290	10077.154297
4617.186989	0.087056	0.747290	10165.167969
4617.187878	0.087019	0.747290	10242.528320
4618.208696	0.979592	0.768821	414.367523
4618.209674	1.473219	0.768821	1855.175659
4618.210620	1.470707	0.768821	3246.464355
4618.211547	1.435276	0.768821	4576.964844
4618.212416	1.399955	0.768821	5793.525391
4618.213459	1.361657	0.768821	7213.733398
4618.214346	1.329020	0.768821	8392.574219
4618.215215	1.070251	0.768821	9322.623047
4618.216148	0.148169	0.768821	9460.864258
4618.217128	0.086971	0.768821	9546.096680
4618.218045	0.086909	0.768821	9625.791992
4618.218920	0.087070	0.768821	9701.978516
4618.219956	0.086960	0.768821	9792.069336
4618.220855	0.086957	0.768821	9870.243164
4618.221725	0.086913	0.768821	9945.857422
4618.222582	0.087085	0.768821	10020.489258
4618.223655	0.086971	0.768821	10113.809570
4618.224539	0.086975	0.768821	10190.695312
4619.255826	1.056108	0.749642	535.446960
4619.256820	1.482770	0.749642	2009.320068
4619.257712	1.469062	0.749642	3319.723633
4619.258695	1.431357	0.749642	4726.748047
4619.259748	1.389781	0.749642	6190.187988
4619.260651	1.355632	0.749642	7414.324219
4619.261515	1.323274	0.749642	8557.632812
4619.262627	0.647095	0.749642	9277.202148
4619.263615	0.089773	0.749642	9365.897461
4619.264499	0.086942	0.749642	9442.753906
4619.265512	0.087100	0.749642	9530.985352
4619.266558	0.087056	0.749642	9622.045898
4619.267437	0.087012	0.749642	9698.529297
4619.268303	0.086986	0.749642	9773.859375
4619.269419	0.087100	0.749642	9871.062500
4619.270352	0.086957	0.749642	9952.193359
4619.271222	0.087026	0.749642	10027.906250
4619.272235	0.087166	0.749642	10116.205078
4620.292646	1.078301	0.758263	557.481506
4620.293594	1.482129	0.758263	1962.539551
4620.294459	1.471139	0.758263	3235.074707
4620.295502	1.430991	0.758263	4727.598633
4620.296537	1.390638	0.758263	6166.909180
4620.297418	1.356826	0.758263	7362.272949
4620.298368	1.322974	0.758263	8619.097656
4620.299445	0.620918	0.758263	9287.826172
4620.300376	0.090498	0.758263	9372.080078
4620.301234	0.087012	0.758263	9446.736328
4620.302298	0.087129	0.758263	9539.441406
4620.303313	0.087100	0.758263	9627.847656
4620.304187	0.087114	0.758263	9703.985352
4620.305145	0.087085	0.758263	9787.413086
4620.306202	0.087231	0.758263	9879.617187
4620.307126	0.087015	0.758263	9960.019531
4620.307994	0.087144	0.758263	10035.660156
4620.309094	0.087268	0.758263	10131.655273
4621.340616	0.979200	0.755451	413.222565
4621.341552	1.471212	0.755451	1790.277100
4621.342609	1.468396	0.755451	3342.371582
4621.343549	1.431929	0.755451	4688.384766
4621.344416	1.397146	0.755451	5899.710449
4621.345466	1.358122	0.755451	7325.739258
4621.346494	1.320981	0.755451	8683.708008
4621.347382	0.804423	0.755451	9398.035156
4621.348355	0.101510	0.755451	9496.804687
4621.349402	0.087074	0.755451	9587.970703
4621.350326	0.087129	0.755451	9668.477539
4621.351183	0.087070	0.755451	9743.096680
4621.352249	0.087209	0.755451	9836.061523
4621.353254	0.087074	0.755451	9923.571289
4621.354138	0.087026	0.755451	10000.502930
4621.355108	0.087305	0.755451	10085.188477
4621.356159	0.087166	0.755451	10176.799805
4621.357076	0.087122	0.755451	10256.690430
4622.376432	1.039006	0.765836	490.411011
4622.377312	1.475984	0.765836	1789.276855
4622.378304	1.471457	0.765836	3248.962646
4622.379341	1.430856	0.765836	4732.759766
4622.380260	1.394374	0.765836	6014.189453
4622.381121	1.360657	0.765836	7185.714844
4622.382191	1.323160	0.765836	8601.496094
4622.383200	0.707259	0.765836	9315.121094
4622.384074	0.095164	0.765836	9398.293945
4622.385049	0.087118	0.765836	9483.234375
4622.386102	0.087008	0.765836	9574.853516
4622.387012	0.087085	0.765836	9654.100586
4622.387872	0.087085	0.765836	9728.993164
4622.388948	0.087158	0.765836	9822.775391
4622.389932	0.087037	0.765836	9908.419922
4622.390828	0.087037	0.765836	9986.405273
4622.391817	0.087195	0.765836	10072.640625
4622.392863	0.087063	0.765836	10163.708984
4623.424951	1.001602	0.741501	423.677460
4623.426059	1.482242	0.741501	2066.002197
4623.426968	1.467755	0.741501	3400.191650
4623.427833	1.433555	0.741501	4640.216309
4623.428912	1.391232	0.741501	6141.355469
4623.429890	1.354775	0.741501	7466.325684
4623.430769	1.322871	0.741501	8629.128906
4623.431657	0.815021	0.741501	9352.867187
4623.432767	0.092644	0.741501	9455.702148
4623.433657	0.087012	0.741501	9533.142578
4623.434521	0.087045	0.741501	9608.349609
4623.435581	0.087261	0.741501	9700.845703
4623.436539	0.087030	0.741501	9784.220703
4623.437413	0.086960	0.741501	9860.224609
4623.438269	0.087114	0.741501	9934.793945
4623.439368	0.087103	0.741501	10030.520508
4623.440250	0.087133	0.741501	10107.371094
4623.441127	0.087026	0.741501	10183.693359
4624.461844	1.056346	0.764080	528.173218
4624.462861	1.483169	0.764080	2036.556030
4624.463752	1.468352	0.764080	3344.857910
4624.464716	1.431423	0.764080	4724.750000
4624.465769	1.389338	0.764080	6187.723145
4624.466697	1.354493	0.764080	7444.693359
4624.467564	1.322688	0.764080	8591.463867
4624.468652	0.622423	0.764080	9268.660156
4624.469651	0.089209	0.764080	9357.780273
4624.470541	0.087059	0.764080	9435.262695
4624.471521	0.087169	0.764080	9520.688477
4624.472562	0.087004	0.764080	9611.259766
4624.473465	0.087078	0.764080	9689.890625
4624.474325	0.087074	0.764080	9764.774414
4624.475400	0.087070	0.764080	9858.375000
4624.476385	0.087048	0.764080	9944.117187
4624.477262	0.087034	0.764080	10020.445312
4624.478264	0.087224	0.764080	10107.843750
4625.509829	0.988766	0.744124	428.135620
4625.510696	1.471560	0.744124	1703.978149
4625.511757	1.470132	0.744124	3263.788086
4625.512775	1.430929	0.744124	4720.473633
4625.513670	1.395450	0.744124	5969.401855
4625.514639	1.359591	0.744124	7286.845703
4625.515695	1.321231	0.744124	8682.065430
4625.516621	0.731536	0.744124	9359.467773
4625.517479	0.097379	0.744124	9443.019531
4625.518572	0.087261	0.744124	9538.395508
4625.519565	0.087118	0.744124	9624.903320
4625.520443	0.087144	0.744124	9701.415039
4625.521430	0.087045	0.744124	9787.328125
4625.522485	0.087191	0.744124	9879.314453
4625.523373	0.087063	0.744124	9956.625977
4625.524230	0.087074	0.744124	10031.248047
4625.525332	0.087096	0.744124	10127.227539
4625.526312	0.087078	0.744124	10212.563477
4626.545174	1.063253	0.770424	531.626587
4626.546177	1.482814	0.770424	2018.888794
4626.547059	1.468894	0.770424	3314.453125
4626.548054	1.430185	0.770424	4737.487793
4626.549131	1.389042	0.770424	6233.485840
4626.550005	1.355094	0.770424	7417.837891
4626.550891	1.321959	0.770424	8589.093750
4626.552004	0.592189	0.770424	9248.200195
4626.552964	0.089242	0.770424	9333.872070
4626.553832	0.087001	0.770424	9409.388672
4626.554857	0.087140	0.770424	9498.707031
4626.555899	0.087107	0.770424	9589.472656
4626.556786	0.086876	0.770424	9666.532227
4626.557712	0.087180	0.770424	9747.260742
4626.558768	0.087220	0.770424	9839.365234
4626.559713	0.087100	0.770424	9921.674805
4626.560574	0.086960	0.770424	9996.547852
4626.561627	0.087224	0.770424	10088.394531
4627.594212	1.010738	0.724506	469.993408
4627.595289	1.481620	0.724506	2065.697998
4627.596236	1.465833	0.724506	3453.841309
4627.597100	1.431595	0.724506	4690.739746
4627.598131	1.390668	0.724506	6124.518066
4627.599183	1.352223	0.724506	7547.056641
4627.600061	1.320165	0.724506	8706.161133
4627.601017	0.691157	0.724506	9366.907227
4627.602060	0.089967	0.724506	9460.743164
4627.602979	0.087125	0.724506	9540.811523
4627.603849	0.087001	0.724506	9616.501953
4627.604898	0.087220	0.724506	9707.996094
4627.605913	0.087030	0.724506	9796.332031
4627.606808	0.087078	0.724506	9874.266602
4627.607770	0.087246	0.724506	9958.197266
4627.608822	0.087107	0.724506	10049.833984
4627.609740	0.086927	0.724506	10129.633789
4627.610602	0.087133	0.724506	10204.742187
4628.629950	0.982606	0.761514	417.607635
4628.630907	1.471765	0.761514	1826.086914
4628.631986	1.466605	0.761514	3408.553955
4628.632917	1.430065	0.761514	4739.944336
4628.633784	1.395143	0.761514	5949.533203
4628.634865	1.355083	0.761514	7414.377930
4628.635873	1.318751	0.761514	8743.679687
4628.636779	0.691549	0.761514	9370.222656
4628.637762	0.093929	0.761514	9462.555664
4628.638830	0.087081	0.761514	9555.558594
4628.639734	0.087023	0.761514	9634.227539
4628.640598	0.087107	0.761514	9709.488281
4628.641697	0.087246	0.761514	9805.372070
4628.642662	0.087019	0.761514	9889.345703
4628.643586	0.086997	0.761514	9969.731445
4628.644505	0.086949	0.761514	10049.637695
4628.645369	0.087070	0.761514	10124.866211
4628.646359	0.087026	0.761514	10211.022461
4629.678674	1.124224	0.724337	649.801208
4629.679611	1.483118	0.724337	2039.482422
4629.680498	1.468810	0.724337	3342.316895
4629.681511	1.430255	0.724337	4791.165039
4629.682504	1.390305	0.724337	6171.738281
4629.683390	1.356815	0.724337	7373.876465
4629.684267	1.325387	0.724337	8536.241211
4629.685296	0.770087	0.724337	9328.660156
4629.686201	0.096240	0.724337	9415.757812
4629.687114	0.087107	0.724337	9495.286133
4629.687991	0.087019	0.724337	9571.601562
4629.689029	0.087085	0.724337	9661.996094
4629.689919	0.087030	0.724337	9739.453125
4629.690796	0.087111	0.724337	9815.848633
4629.691764	0.087198	0.724337	9900.256836
4629.692733	0.086990	0.724337	9984.549805
4629.693616	0.087074	0.724337	10061.436523
4629.694542	0.087089	0.724337	10142.081055
4630.714442	1.110839	0.756587	622.069641
4630.715498	1.484484	0.756587	2189.684326
4630.716385	1.464910	0.756587	3489.059082
4630.717324	1.428080	0.756587	4830.025879
4630.718385	1.386705	0.756587	6301.320312
4630.719317	1.351787	0.756587	7561.186035
4630.720182	1.320355	0.756587	8703.292969
4630.721263	0.558955	0.756587	9307.523437
4630.722290	0.088147	0.756587	9398.050781
4630.723162	0.087078	0.756587	9473.982422
4630.724126	0.087217	0.756587	9558.059570
4630.725184	0.087155	0.756587	9650.269531
4630.726093	0.086971	0.756587	9729.326172
4630.726960	0.087085	0.756587	9804.829102
4630.728043	0.087290	0.756587	9899.364258
4630.729031	0.087034	0.756587	9985.353516
4630.729918	0.087144	0.756587	10062.649414
4630.730913	0.087297	0.756587	10149.510742
4631.762871	0.976355	0.717360	411.045441
4631.763768	1.470839	0.717360	1730.387573
4631.764886	1.467568	0.717360	3371.128906
4631.765837	1.430497	0.717360	4731.531250
4631.766708	1.395754	0.717360	5947.233398
4631.767767	1.356101	0.717360	7383.344238
4631.768791	1.319462	0.717360	8734.472656
4631.769690	0.712211	0.717360	9374.750000
4631.770654	0.095702	0.717360	9467.006836
4631.771708	0.086990	0.717360	9558.694336
4631.772632	0.086913	0.717360	9639.001953
4631.773492	0.086982	0.717360	9713.806641
4631.774559	0.087173	0.717360	9806.820312
4631.775555	0.086770	0.717360	9893.243164
4631.776435	0.087015	0.717360	9969.816406
4631.777420	0.087037	0.717360	10055.547852
4631.778465	0.086964	0.717360	10146.425781
4631.779375	0.086953	0.717360	10225.552734
4632.798695	1.028503	0.744035	482.368103
4632.799573	1.475823	0.744035	1778.140381
4632.800537	1.471919	0.744035	3197.070312
4632.801601	1.430878	0.744035	4719.524414
4632.802543	1.393682	0.744035	6032.372559
4632.803412	1.360192	0.744035	7214.378906
4632.804499	1.321816	0.744035	8651.193359
4632.805494	0.667969	0.744035	9315.822266
4632.806381	0.093596	0.744035	9398.841797
4632.807381	0.087030	0.744035	9485.872070
4632.808419	0.087019	0.744035	9576.198242
4632.809310	0.086924	0.744035	9653.647461
4632.810168	0.087078	0.744035	9728.360352
4632.811263	0.087180	0.744035	9823.822266
4632.812247	0.086960	0.744035	9909.391602
4632.813122	0.086935	0.744035	9985.459961
4632.814114	0.087173	0.744035	10071.935547
4632.815180	0.087041	0.744035	10164.721680
4633.848778	1.005633	0.715861	438.456207
4633.849655	1.473252	0.715861	1730.498169
4633.850666	1.471300	0.715861	3217.982422
4633.851735	1.430537	0.715861	4747.226562
4633.852632	1.394502	0.715861	5998.094727
4633.853524	1.360203	0.715861	7211.395508
4633.854618	1.321322	0.715861	8656.921875
4633.855590	0.703810	0.715861	9341.025391
4633.856452	0.095793	0.715861	9423.599609
4633.857499	0.087155	0.715861	9514.850586
4633.858535	0.087070	0.715861	9605.055664
4633.859413	0.087063	0.715861	9681.497070
4633.860345	0.087081	0.715861	9762.657227
4633.861404	0.087147	0.715861	9854.946289
4633.862332	0.087191	0.715861	9935.859375
4633.863190	0.086931	0.715861	10010.446289
4633.864245	0.087206	0.715861	10102.448242
4633.865261	0.087045	0.715861	10190.885742
4634.882504	0.998551	0.740131	434.369659
4634.883369	1.471699	0.740131	1707.389526
4634.884493	1.468004	0.740131	3357.426270
4634.885466	1.429911	0.740131	4748.729492
4634.886334	1.395454	0.740131	5959.983398
4634.887382	1.356431	0.740131	7381.522461
4634.888424	1.319008	0.740131	8755.928711
4634.889318	0.698752	0.740131	9380.613281
4634.890261	0.095350	0.740131	9470.528320
4634.891316	0.087133	0.740131	9562.453125
4634.892246	0.086854	0.740131	9643.227539
4634.893108	0.087125	0.740131	9718.329102
4634.894160	0.087140	0.740131	9810.000000
4634.895177	0.086957	0.740131	9898.435547
4634.896046	0.087107	0.740131	9974.131836
4634.897007	0.087173	0.740131	10057.905273
4634.898064	0.087023	0.740131	10149.888672
4634.898983	0.086990	0.740131	10229.832031
4635.932639	1.012123	0.713166	466.588654
4635.933535	1.475969	0.713166	1789.057007
4635.934402	1.474277	0.713166	3067.255371
4635.935407	1.436960	0.713166	4511.400391
4635.936336	1.400402	0.713166	5812.373535
4635.937217	1.366443	0.713166	7016.209961
4635.938131	1.333019	0.713166	8234.588867
4635.939100	1.061049	0.713166	9262.745117
4635.940015	0.142035	0.713166	9392.707031
4635.940895	0.086851	0.713166	9469.135742
4635.941906	0.087023	0.713166	9557.115234
4635.942832	0.087026	0.713166	9637.701172
4635.943751	0.087041	0.713166	9717.691406
4635.944614	0.087074	0.713166	9792.835937
4635.945611	0.086986	0.713166	9879.561523
4635.946536	0.086913	0.713166	9959.956055
4635.947400	0.087096	0.713166	10035.207031
4635.948426	0.087048	0.713166	10124.518555
4636.966835	0.974048	0.731314	409.100098
4636.967831	1.474559	0.731314	1877.761108
4636.968773	1.470176	0.731314	3262.666504
4636.969704	1.434225	0.731314	4597.929687
4636.970570	1.399431	0.731314	5809.836914
4636.971620	1.360646	0.731314	7238.515137
4636.972512	1.328068	0.731314	8423.151367
4636.973394	1.033429	0.731314	9334.635742
4636.974393	0.133850	0.731314	9468.351562
4636.975342	0.086825	0.731314	9550.748047
4636.976264	0.087030	0.731314	9630.989258
4636.977125	0.086942	0.731314	9705.846680
4636.978156	0.086942	0.731314	9795.484375
4636.979048	0.086964	0.731314	9873.056641
4636.979918	0.086982	0.731314	9948.731445
4636.980832	0.087114	0.731314	10028.353516
4636.981817	0.087019	0.731314	10114.067383
4636.982750	0.086953	0.731314	10195.194336
4638.017029	1.025793	0.700912	512.896729
4638.018089	1.483257	0.700912	2085.148926
4638.018985	1.466913	0.700912	3399.502686
4638.019853	1.432614	0.700912	4643.011230
4638.020903	1.391422	0.700912	6104.004395
4638.021862	1.355680	0.700912	7404.101562
4638.022740	1.323970	0.700912	8566.546875
4638.023679	0.820353	0.700912	9336.858398
4638.024733	0.093175	0.700912	9435.064453
4638.025621	0.087078	0.700912	9512.389648
4638.026480	0.087037	0.700912	9587.154297
4638.027531	0.087231	0.700912	9678.834961
4638.028488	0.087089	0.700912	9762.178711
4638.029353	0.087107	0.700912	9837.526367
4638.030243	0.087228	0.700912	9915.159180
4638.031349	0.087100	0.700912	10011.491211
4638.032227	0.087026	0.700912	10087.900391
4638.033088	0.087268	0.700912	10163.038086
4639.051716	0.987246	0.740244	428.464783
4639.052586	1.471926	0.740244	1709.040771
4639.053633	1.470300	0.740244	3248.445312
4639.054666	1.430680	0.740244	4726.337891
4639.055558	1.395260	0.740244	5970.909668
4639.056516	1.359858	0.740244	7273.654297
4639.057570	1.321406	0.740244	8666.416016
4639.058500	0.739574	0.740244	9354.219727
4639.059361	0.097903	0.740244	9438.513672
4639.060414	0.086979	0.740244	9530.102539
4639.061431	0.086975	0.740244	9618.556641
4639.062309	0.086964	0.740244	9694.911133
4639.063289	0.087305	0.740244	9780.469727
4639.064339	0.087023	0.740244	9871.843750
4639.065254	0.086975	0.740244	9951.425781
4639.066110	0.087037	0.740244	10025.929687
4639.067168	0.087103	0.740244	10118.084961
4639.068168	0.087107	0.740244	10205.191406
4640.101361	1.039955	0.692601	491.898682
4640.102237	1.476017	0.692601	1784.889404
4640.103254	1.470652	0.692601	3280.542480
4640.104319	1.429266	0.692601	4802.710937
4640.105230	1.392920	0.692601	6071.661133
4640.106091	1.359130	0.692601	7241.871582
4640.107158	1.321194	0.692601	8651.584961
4640.108162	0.644136	0.692601	9298.296875
4640.109056	0.092582	0.692601	9381.065430
4640.110061	0.087246	0.692601	9468.748047
4640.111106	0.087092	0.692601	9559.759766
4640.111997	0.087034	0.692601	9637.306641
4640.112878	0.087063	0.692601	9714.008789
4640.113994	0.087133	0.692601	9811.249023
4640.114953	0.087092	0.692601	9894.770508
4640.115816	0.087059	0.692601	9969.902344
4640.116852	0.087209	0.692601	10060.250977
4640.117886	0.087217	0.692601	10150.433594
4641.135540	0.974971	0.724135	409.487732
4641.136540	1.473907	0.724135	1883.395264
4641.137580	1.467118	0.724135	3409.197754
4641.138483	1.431280	0.724135	4701.644043
4641.139345	1.395787	0.724135	5904.812500
4641.140449	1.355559	0.724135	7401.349609
4641.141427	1.320524	0.724135	8692.821289
4641.142306	0.786508	0.724135	9384.161133
4641.143323	0.097174	0.724135	9482.987305
4641.144368	0.087019	0.724135	9573.921875
4641.145245	0.087081	0.724135	9650.291992
4641.146133	0.087151	0.724135	9727.681641
4641.147260	0.087151	0.724135	9825.900391
4641.148196	0.087008	0.724135	9907.339844
4641.149056	0.087100	0.724135	9982.245117
4641.150073	0.087261	0.724135	10070.989258
4641.151113	0.087162	0.724135	10161.637695
4641.152005	0.087056	0.724135	10239.291016
4642.185150	0.983877	0.703724	417.163818
4642.186047	1.471179	0.703724	1736.811523
4642.187140	1.467968	0.703724	3341.300293
4642.188098	1.430812	0.703724	4712.018066
4642.188970	1.396263	0.703724	5929.559570
4642.190007	1.357152	0.703724	7336.926270
4642.191042	1.319974	0.703724	8703.099609
4642.191941	0.744928	0.703724	9372.790039
4642.192894	0.097350	0.703724	9465.564453
4642.193944	0.087067	0.703724	9556.984375
4642.194883	0.087037	0.703724	9638.712891
4642.195745	0.087019	0.703724	9713.723633
4642.196810	0.087191	0.703724	9806.582031
4642.197813	0.087063	0.703724	9893.906250
4642.198701	0.087015	0.703724	9971.175781
4642.199667	0.087180	0.703724	10055.391602
4642.200697	0.087162	0.703724	10145.167969
4642.201610	0.087004	0.703724	10224.602539
4643.219982	1.055010	0.721037	521.174866
4643.220996	1.482642	0.721037	2024.573486
4643.221885	1.468498	0.721037	3330.068604
4643.222856	1.431189	0.721037	4719.752930
4643.223909	1.389481	0.721037	6182.876465
4643.224837	1.354523	0.721037	7439.873535
4643.225707	1.322333	0.721037	8590.302734
4643.226803	0.615956	0.721037	9265.390625
4643.227795	0.088997	0.721037	9353.674805
4643.228687	0.086953	0.721037	9431.237305
4643.229660	0.087187	0.721037	9516.070312
4643.230702	0.087118	0.721037	9606.847656
4643.231604	0.087089	0.721037	9685.401367
4643.232463	0.087122	0.721037	9760.239258
4643.233549	0.087151	0.721037	9854.884766
4643.234532	0.087008	0.721037	9940.414062
4643.235413	0.087037	0.721037	10017.093750
4643.236418	0.087026	0.721037	10104.555664
4644.270102	1.065945	0.687812	540.434082
4644.271098	1.482898	0.687812	2017.400391
4644.271989	1.468583	0.687812	3325.907715
4644.272989	1.429501	0.687812	4755.408203
4644.274048	1.388727	0.687812	6226.069824
4644.274940	1.354644	0.687812	7434.412109
4644.275831	1.321729	0.687812	8612.072266
4644.276932	0.589709	0.687812	9261.342773
4644.277881	0.089414	0.687812	9346.196289
4644.278751	0.086949	0.687812	9421.842773
4644.279796	0.087166	0.687812	9512.930664
4644.280822	0.087034	0.687812	9602.227539
4644.281716	0.087063	0.687812	9680.061523
4644.282670	0.087147	0.687812	9763.200195
4644.283727	0.087081	0.687812	9855.245117
4644.284651	0.086979	0.687812	9935.613281
4644.285508	0.086960	0.687812	10010.138672
4644.286569	0.087239	0.687812	10102.699219
4645.304273	1.008900	0.709589	449.969482
4645.305146	1.473508	0.709589	1736.342285
4645.306150	1.471417	0.709589	3213.645264
4645.307210	1.430995	0.709589	4730.500000
4645.308100	1.395260	0.709589	5972.281250
4645.308969	1.360811	0.709589	7154.825684
4645.310087	1.322091	0.709589	8632.923828
4645.311067	0.717601	0.709589	9336.172852
4645.311936	0.095834	0.709589	9419.452148
4645.312959	0.087158	0.709589	9508.615234
4645.313999	0.087100	0.709589	9599.199219
4645.314887	0.086971	0.709589	9676.429687
4645.315809	0.087155	0.709589	9756.786133
4645.316878	0.087078	0.709589	9849.872070
4645.317826	0.086993	0.709589	9932.341797
4645.318689	0.087155	0.709589	10007.556641
4645.319739	0.087118	0.709589	10099.030273
4645.320756	0.087085	0.709589	10187.595703
4646.354392	1.005249	0.682821	446.330566
4646.355258	1.473171	0.682821	1722.096924
4646.356322	1.469703	0.682821	3285.861328
4646.357348	1.429896	0.682821	4752.934570
4646.358234	1.394626	0.682821	5988.573730
4646.359198	1.358533	0.682821	7298.199219
4646.360279	1.319985	0.682821	8725.103516
4646.361190	0.693875	0.682821	9357.223633
4646.362056	0.095354	0.682821	9439.799805
4646.363120	0.087206	0.682821	9532.586914
4646.364120	0.087015	0.682821	9619.602539
4646.365007	0.087122	0.682821	9696.878906
4646.365990	0.087100	0.682821	9782.498047
4646.367048	0.087173	0.682821	9874.726562
4646.367950	0.087118	0.682821	9953.306641
4646.368815	0.087136	0.682821	10028.679687
4646.369916	0.087220	0.682821	10124.708984
4646.370890	0.086957	0.682821	10209.405273
4647.388619	0.993505	0.697049	438.135559
4647.389501	1.473658	0.697049	1737.902344
4647.390449	1.473871	0.697049	3135.131836
4647.391392	1.437656	0.697049	4490.841797
4647.392311	1.401141	0.697049	5778.490723
4647.393183	1.367490	0.697049	6970.942383
4647.394124	1.332228	0.697049	8224.568359
4647.395084	1.089038	0.697049	9270.044922
4647.395979	0.157093	0.697049	9410.643555
4647.396981	0.087001	0.697049	9497.818359
4647.397890	0.087012	0.697049	9576.912109
4647.398802	0.087045	0.697049	9656.296875
4647.399689	0.087023	0.697049	9733.486328
4647.400630	0.087184	0.697049	9815.526367
4647.401567	0.087070	0.697049	9897.111328
4647.402454	0.087118	0.697049	9974.384766
4647.403407	0.087173	0.697049	10057.460937
4647.404360	0.087100	0.697049	10140.466797
4648.437697	0.989868	0.695204	424.653473
4648.438562	1.471465	0.695204	1697.470581
4648.439655	1.469139	0.695204	3303.239990
4648.440641	1.430636	0.695204	4713.847168
4648.441537	1.395498	0.695204	5964.213379
4648.442545	1.357822	0.695204	7332.898437
4648.443601	1.320183	0.695204	8727.011719
4648.444487	0.740131	0.695204	9382.767578
4648.445345	0.097837	0.695204	9466.711914
4648.446452	0.087023	0.695204	9563.045898
4648.447407	0.087045	0.695204	9646.173828
4648.448265	0.086913	0.695204	9720.745117
4648.449313	0.087235	0.695204	9812.167969
4648.450354	0.087052	0.695204	9902.789062
4648.451222	0.087100	0.695204	9978.391602
4648.452108	0.087169	0.695204	10055.623047
4648.453201	0.087155	0.695204	10150.882812
4648.454153	0.087092	0.695204	10233.794922
4649.472559	1.088606	0.708364	575.872498
4649.473597	1.483707	0.708364	2115.960693
4649.474500	1.465851	0.708364	3439.624023
4649.475449	1.428885	0.708364	4795.636230
4649.476514	1.387346	0.708364	6273.160156
4649.477450	1.351963	0.708364	7538.597168
4649.478319	1.320227	0.708364	8685.875000
4649.479388	0.570652	0.708364	9295.901367
4649.480404	0.088455	0.708364	9385.771484
4649.481279	0.087056	0.708364	9461.945312
4649.482269	0.087272	0.708364	9548.344727
4649.483321	0.087070	0.708364	9639.942383
4649.484221	0.087089	0.708364	9718.322266
4649.485078	0.087180	0.708364	9793.036133
4649.486139	0.087191	0.708364	9885.545898
4649.487136	0.087070	0.708364	9972.355469
4649.488022	0.087078	0.708364	10049.505859
4649.488998	0.087180	0.708364	10134.593750
4650.522641	1.056229	0.664129	530.227051
4650.523655	1.482850	0.664129	2033.837280
4650.524546	1.468491	0.664129	3342.262939
4650.525522	1.430830	0.664129	4738.752930
4650.526590	1.388650	0.664129	6221.831055
4650.527506	1.353995	0.664129	7462.090820
4650.528373	1.321794	0.664129	8608.086914
4650.529477	0.588047	0.664129	9257.291016
4650.530469	0.088865	0.664129	9345.445312
4650.531359	0.087045	0.664129	9422.915039
4650.532347	0.087111	0.664129	9508.980469
4650.533404	0.087257	0.664129	9601.210937
4650.534284	0.087129	0.664129	9677.884766
4650.535204	0.086975	0.664129	9757.902344
4650.536061	0.087111	0.664129	9832.555664
4650.537061	0.087056	0.664129	9919.611328
4650.537981	0.087001	0.664129	9999.652344
4650.538906	0.087030	0.664129	10080.155273
4651.556840	1.031906	0.703212	480.867981
4651.557718	1.475446	0.703212	1776.309326
4651.558684	1.471985	0.703212	3198.246582
4651.559751	1.430479	0.703212	4724.567383
4651.560678	1.393835	0.703212	6016.652832
4651.561549	1.360287	0.703212	7201.462891
4651.562627	1.322293	0.703212	8626.894531
4651.563629	0.684452	0.703212	9312.714844
4651.564522	0.093563	0.703212	9396.266602
4651.565513	0.087059	0.703212	9482.541992
4651.566570	0.087155	0.703212	9574.664062
4651.567466	0.086935	0.703212	9652.557617
4651.568325	0.087059	0.703212	9727.341797
4651.569426	0.087206	0.703212	9823.355469
4651.570392	0.087111	0.703212	9907.503906
4651.571250	0.087037	0.703212	9982.181641
4651.572321	0.087206	0.703212	10075.579102
4651.573364	0.087125	0.703212	10166.451172
4652.606925	1.013441	0.662115	445.914124
4652.607808	1.473995	0.662115	1747.451904
4652.608808	1.471157	0.662115	3218.609131
4652.609874	1.430845	0.662115	4743.889648
4652.610767	1.394894	0.662115	5989.529785
4652.611656	1.359976	0.662115	7198.547852
4652.612763	1.321124	0.662115	8661.032227
4652.613727	0.711174	0.662115	9346.604492
4652.614595	0.095665	0.662115	9429.641602
4652.615636	0.087125	0.662115	9520.338867
4652.616662	0.087169	0.662115	9609.774414
4652.617554	0.087041	0.662115	9687.415039
4652.618506	0.087253	0.662115	9770.480469
4652.619540	0.087151	0.662115	9860.594727
4652.620479	0.087096	0.662115	9942.377930
4652.621343	0.087041	0.662115	10017.581055
4652.622411	0.087184	0.662115	10110.693359
4652.623431	0.087070	0.662115	10199.504883
4653.641659	0.979548	0.690104	412.389862
4653.642609	1.471663	0.690104	1810.469360
4653.643572	1.471238	0.690104	3227.271484
4653.644505	1.435269	0.690104	4566.376953
4653.645378	1.400438	0.690104	5788.959473
4653.646431	1.361525	0.690104	7222.645020
4653.647324	1.328331	0.690104	8408.844727
4653.648202	1.049630	0.690104	9330.419922
4653.649064	0.143123	0.690104	9453.791992
4653.650125	0.087085	0.690104	9546.189453
4653.650998	0.087067	0.690104	9622.198242
4653.651874	0.087019	0.690104	9698.426758
4653.652864	0.087184	0.690104	9784.738281
4653.653797	0.087008	0.690104	9865.916992
4653.654715	0.087070	0.690104	9945.847656
4653.655580	0.087063	0.690104	10021.157227
4653.656619	0.087173	0.690104	10111.729492
4653.657508	0.087162	0.690104	10189.216797
4654.689778	1.036945	0.676267	496.696472
4654.690661	1.476881	0.676267	1800.782471
4654.691606	1.471912	0.676267	3191.738770
4654.692687	1.430251	0.676267	4737.840820
4654.693622	1.393422	0.676267	6040.689941
4654.694489	1.360199	0.676267	7219.982422
4654.695566	1.321937	0.676267	8643.708984
4654.696568	0.669349	0.676267	9314.397461
4654.697455	0.093754	0.676267	9397.556641
4654.698432	0.087081	0.676267	9482.634766
4654.699460	0.087125	0.676267	9572.199219
4654.700377	0.087111	0.676267	9652.080078
4654.701234	0.087151	0.676267	9726.768555
4654.702323	0.087206	0.676267	9821.735352
4654.703311	0.087070	0.676267	9907.760742
4654.704183	0.087162	0.676267	9983.765625
4654.705169	0.087158	0.676267	10069.703125
4654.706224	0.087118	0.676267	10161.612305
4655.725127	1.094978	0.669535	617.567627
4655.726183	1.483982	0.669535	2184.652588
4655.727081	1.464529	0.669535	3499.799316
4655.727950	1.428527	0.669535	4741.188965
4655.729054	1.387214	0.669535	6272.673828
4655.730018	1.351307	0.669535	7575.333984
4655.730879	1.320011	0.669535	8711.863281
4655.731909	0.584114	0.669535	9313.500000
4655.732957	0.088469	0.669535	9406.215820
4655.733847	0.087019	0.669535	9483.663086
4655.734770	0.087067	0.669535	9564.025391
4655.735843	0.087187	0.669535	9657.577148
4655.736785	0.086916	0.669535	9739.452148
4655.737649	0.087092	0.669535	9814.700195
4655.738697	0.087092	0.669535	9905.972656
4655.739708	0.087122	0.669535	9994.052734
4655.740597	0.087147	0.669535	10071.526367
4655.741547	0.087198	0.669535	10154.365234
4656.774638	1.016016	0.671678	483.623383
4656.775704	1.482081	0.671678	2063.521973
4656.776660	1.465419	0.671678	3464.462402
4656.777530	1.430859	0.671678	4709.310059
4656.778590	1.389481	0.671678	6182.160156
4656.779626	1.350619	0.671678	7581.401367
4656.780520	1.318572	0.671678	8760.205078
4656.781487	0.634449	0.671678	9373.717773
4656.782516	0.089414	0.671678	9465.724609
4656.783438	0.087081	0.671678	9546.013672
4656.784296	0.087290	0.671678	9620.908203
4656.785357	0.087246	0.671678	9713.476562
4656.786362	0.087198	0.671678	9801.111328
4656.787242	0.087144	0.671678	9877.797852
4656.788233	0.087180	0.671678	9964.193359
4656.789285	0.087206	0.671678	10055.933594
4656.790191	0.087162	0.671678	10134.902344
4656.791047	0.087048	0.671678	10209.416016
4657.809860	0.985067	0.654075	425.549011
4657.810733	1.472205	0.654075	1710.783691
4657.811657	1.474182	0.654075	3072.927979
4657.812732	1.434177	0.654075	4614.668457
4657.813630	1.398069	0.654075	5870.134277
4657.814499	1.364861	0.654075	7056.198242
4657.815550	1.327207	0.654075	8451.092773
4657.816532	0.889464	0.654075	9324.546875
4657.817407	0.109515	0.654075	9420.373047
4657.818320	0.087078	0.654075	9499.875000
4657.819395	0.087122	0.654075	9593.530273
4657.820274	0.087023	0.654075	9670.023437
4657.821135	0.087019	0.654075	9744.947266
4657.822169	0.087136	0.654075	9835.045898
4657.823127	0.086986	0.654075	9918.378906
4657.823993	0.087030	0.654075	9993.747070
4657.824854	0.087092	0.654075	10068.733398
4657.825973	0.087092	0.654075	10166.189453
4658.858522	1.067769	0.657607	541.358643
4658.859517	1.482773	0.657607	2016.718140
4658.860411	1.468513	0.657607	3329.568848
4658.861411	1.430131	0.657607	4759.699219
4658.862470	1.388423	0.657607	6230.039062
4658.863370	1.354175	0.657607	7448.796387
4658.864233	1.321904	0.657607	8589.599609
4658.865347	0.603007	0.657607	9261.348633
4658.866310	0.089227	0.657607	9347.274414
4658.867183	0.087001	0.657607	9423.225586
4658.868187	0.087107	0.657607	9510.680664
4658.869238	0.087026	0.657607	9602.145508
4658.870102	0.087107	0.657607	9677.406250
4658.870971	0.087067	0.657607	9753.067383
4658.872079	0.087048	0.657607	9849.516602
4658.873043	0.086990	0.657607	9933.375000
4658.873913	0.087008	0.657607	10009.072266
4658.874932	0.087206	0.657607	10097.934570
4659.893196	0.993922	0.667662	436.331787
4659.894055	1.471604	0.667662	1700.439575
4659.895131	1.469835	0.667662	3281.982178
4659.896129	1.430947	0.667662	4710.067383
4659.897005	1.396194	0.667662	5933.133301
4659.897995	1.359137	0.667662	7278.678711
4659.899058	1.320663	0.667662	8682.542969
4659.899972	0.742767	0.667662	9361.432617
4659.900838	0.097610	0.667662	9445.962891
4659.901942	0.087111	0.667662	9542.132812
4659.902913	0.087012	0.667662	9626.621094
4659.903780	0.086949	0.667662	9702.005859
4659.904834	0.087067	0.667662	9793.774414
4659.905870	0.087133	0.667662	9884.043945
4659.906756	0.087085	0.667662	9961.201172
4659.907681	0.087089	0.667662	10041.757812
4659.908749	0.087191	0.667662	10134.877930
4659.909693	0.087140	0.667662	10217.137695
4660.943301	0.983178	0.649599	422.766357
4660.944161	1.471472	0.649599	1688.232422
4660.945192	1.470743	0.649599	3204.568848
4660.946167	1.433723	0.649599	4602.449219
4660.947045	1.398915	0.649599	5830.696289
4660.947939	1.363997	0.649599	7050.109375
4660.949041	1.325559	0.649599	8510.875000
4660.949945	0.925298	0.649599	9347.343750
4660.950809	0.115459	0.649599	9447.100586
4660.951858	0.087169	0.649599	9538.541016
4660.952827	0.087155	0.649599	9622.994141
4660.953701	0.087147	0.649599	9699.161133
4660.954582	0.087067	0.649599	9775.867187
4660.955674	0.087166	0.649599	9871.051758
4660.956555	0.087034	0.649599	9947.728516
4660.957413	0.087100	0.649599	10022.459961
4660.958494	0.087312	0.649599	10116.844727
4660.959452	0.087026	0.649599	10200.215820
4661.978645	1.059419	0.656125	529.709473
4661.979567	1.480364	0.656125	1894.604858
4661.980432	1.471989	0.656125	3167.875000
4661.981530	1.430222	0.656125	4738.258789
4661.982531	1.390602	0.656125	6130.250977
4661.983412	1.357701	0.656125	7326.385742
4661.984399	1.322747	0.656125	8631.936523
4661.985455	0.628264	0.656125	9295.383789
4661.986353	0.091509	0.656125	9377.558594
4661.987210	0.087030	0.656125	9452.143555
4661.988300	0.087242	0.656125	9547.238281
4661.989290	0.087048	0.656125	9633.416016
4661.990163	0.087155	0.656125	9709.501953
4661.991148	0.087114	0.656125	9795.309570
4661.992207	0.087217	0.656125	9887.671875
4661.993106	0.086979	0.656125	9965.866211
4661.993970	0.087026	0.656125	10041.056641
4661.995083	0.087290	0.656125	10138.210937
4663.026126	0.997093	0.654965	436.726959
4663.026993	1.472263	0.654965	1713.179077
4663.028041	1.469813	0.654965	3253.543457
4663.029074	1.429944	0.654965	4730.675293
4663.029969	1.394857	0.654965	5979.072266
4663.030946	1.358463	0.654965	7306.291016
4663.032000	1.320377	0.654965	8697.968750
4663.032920	0.718916	0.654965	9359.371094
4663.033785	0.096379	0.654965	9442.739258
4663.034885	0.087253	0.654965	9538.717773
4663.035879	0.087056	0.654965	9625.250977
4663.036769	0.087034	0.654965	9702.710937
4663.037756	0.087224	0.654965	9788.800781
4663.038821	0.087140	0.654965	9881.604492
4663.039710	0.087301	0.654965	9959.214844
4663.040594	0.087096	0.654965	10036.208008
4663.041669	0.087305	0.654965	10130.060547
4663.042619	0.087096	0.654965	10212.801758
4664.063427	0.985561	0.649011	421.820312
4664.064354	1.471560	0.649011	1785.956421
4664.065411	1.469136	0.649011	3338.833008
4664.066293	1.434126	0.649011	4603.732422
4664.067153	1.399556	0.649011	5807.350586
4664.068177	1.360642	0.649011	7200.647949
4664.069154	1.325731	0.649011	8495.887695
4664.070034	0.971041	0.649011	9350.404297
4664.070905	0.124314	0.649011	9458.681641
4664.072022	0.087089	0.649011	9555.959961
4664.072912	0.087026	0.649011	9633.413086
4664.073789	0.087004	0.649011	9709.715820
4664.074792	0.087173	0.649011	9797.150391
4664.075767	0.087019	0.649011	9881.994141
4664.076690	0.086986	0.649011	9962.282227
4664.077550	0.087191	0.649011	10037.266602
4664.078628	0.087059	0.649011	10131.116211
4664.079515	0.087140	0.649011	10208.409180
4665.108944	1.012097	0.644737	447.346924
4665.109826	1.474124	0.644737	1747.523926
4665.110819	1.471575	0.644737	3208.797852
4665.111879	1.430988	0.644737	4725.644531
4665.112784	1.394832	0.644737	5987.966797
4665.113652	1.360382	0.644737	7168.778320
4665.114775	1.321593	0.644737	8652.926758
4665.115750	0.708625	0.644737	9343.836914
4665.116615	0.095588	0.644737	9426.520508
4665.117673	0.087169	0.644737	9518.745117
4665.118702	0.087074	0.644737	9608.343750
4665.119579	0.087092	0.644737	9684.723633
4665.120511	0.087173	0.644737	9765.968750
4665.121555	0.087220	0.644737	9857.027344
4665.122494	0.087111	0.644737	9938.824219
4665.123355	0.087118	0.644737	10013.833008
4665.124405	0.087206	0.644737	10105.399414
4665.125436	0.087228	0.644737	10195.331055
4666.148840	1.044503	0.612297	483.604919
4666.149727	1.476149	0.612297	1792.948730
4666.150718	1.470487	0.612297	3250.201172
4666.151776	1.429907	0.612297	4763.042969
4666.152680	1.393868	0.612297	6023.100098
4666.153546	1.359393	0.612297	7200.334473
4666.154662	1.320831	0.612297	8674.381836
4666.155648	0.674667	0.612297	9339.603516
4666.156511	0.094237	0.612297	9420.929687
4666.157572	0.087114	0.612297	9513.357422
4666.158598	0.087092	0.612297	9602.713867
4666.159476	0.087008	0.612297	9679.107422
4666.160400	0.087070	0.612297	9759.560547
4666.161462	0.087078	0.612297	9852.037109
4666.162405	0.087019	0.612297	9934.095703
4666.163265	0.087114	0.612297	10009.013672
4666.164298	0.087100	0.612297	10098.987305
4666.165325	0.086975	0.612297	10188.310547
4667.193275	0.983397	0.645599	415.977020
4667.194325	1.478675	0.645599	1968.586304
4667.195344	1.465173	0.645599	3461.597900
4667.196224	1.430504	0.645599	4720.441406
4667.197227	1.392253	0.645599	6116.871582
4667.198299	1.351864	0.645599	7566.069824
4667.199199	1.319026	0.645599	8753.193359
4667.200064	0.716968	0.645599	9373.370117
4667.201171	0.090337	0.645599	9473.373047
4667.202153	0.087012	0.645599	9558.818359
4667.203021	0.087056	0.645599	9634.382812
4667.204076	0.087122	0.645599	9726.295898
4667.205130	0.087242	0.645599	9818.249023
4667.206018	0.087004	0.645599	9895.508789
4667.206945	0.087242	0.645599	9976.382812
4667.208017	0.087184	0.645599	10069.843750
4667.208966	0.087037	0.645599	10152.442383
4667.209832	0.087063	0.645599	10227.838867
4668.233763	1.060957	0.598061	561.246277
4668.234820	1.483542	0.598061	2129.350586
4668.235734	1.464946	0.598061	3468.311523
4668.236600	1.430054	0.598061	4706.738281
4668.237686	1.388459	0.598061	6214.605469
4668.238683	1.350850	0.598061	7561.402344
4668.239578	1.319231	0.598061	8742.114258
4668.240595	0.577357	0.598061	9329.286133
4668.241644	0.088506	0.598061	9422.128906
4668.242517	0.087048	0.598061	9498.122070
4668.243395	0.087242	0.598061	9574.720703
4668.244480	0.087294	0.598061	9669.434570
4668.245440	0.087030	0.598061	9752.983398
4668.246302	0.087096	0.598061	9828.060547
4668.247337	0.087184	0.598061	9918.295898
4668.248379	0.087026	0.598061	10008.977539
4668.249250	0.087111	0.598061	10084.850586
4668.250162	0.087224	0.598061	10164.399414
4669.276093	0.988495	0.663771	420.110352
4669.276970	1.471849	0.663771	1710.922241
4669.277973	1.471893	0.663771	3187.231201
4669.278912	1.435382	0.663771	4535.054687
4669.279838	1.399406	0.663771	5830.904297
4669.280712	1.365055	0.663771	7023.962402
4669.281758	1.328031	0.663771	8413.083008
4669.282651	1.023340	0.663771	9326.925781
4669.283533	0.134465	0.663771	9445.524414
4669.284527	0.087052	0.663771	9532.053711
4669.285472	0.087144	0.663771	9614.404297
4669.286387	0.087041	0.663771	9694.046875
4669.287246	0.087067	0.663771	9768.836914
4669.288280	0.087155	0.663771	9858.955078
4669.289162	0.086942	0.663771	9935.637695
4669.290037	0.087085	0.663771	10011.836914
4669.290964	0.087114	0.663771	10092.591797
4669.291954	0.086942	0.663771	10178.664062
4670.317595	1.065652	0.597348	542.416748
4670.318553	1.481832	0.597348	1962.012085
4670.319419	1.470853	0.597348	3235.770996
4670.320471	1.430233	0.597348	4740.375977
4670.321512	1.389734	0.597348	6187.088867
4670.322402	1.355632	0.597348	7393.601562
4670.323326	1.322325	0.597348	8615.430664
4670.324405	0.620944	0.597348	9285.428711
4670.325335	0.090256	0.597348	9369.367187
4670.326192	0.086938	0.597348	9443.873047
4670.327239	0.087162	0.597348	9535.131836
4670.328262	0.087074	0.597348	9624.208984
4670.329134	0.086997	0.597348	9700.070312
4670.330091	0.087158	0.597348	9783.480469
4670.331136	0.087034	0.597348	9874.430664
4670.332062	0.086968	0.597348	9954.962891
4670.332932	0.087015	0.597348	10030.666016
4670.333983	0.087034	0.597348	10122.138672
4671.361522	1.040552	0.631222	492.181000
4671.362402	1.475845	0.631222	1790.924438
4671.363392	1.470934	0.631222	3247.148926
4671.364446	1.429885	0.631222	4754.248047
4671.365364	1.393315	0.631222	6033.311523
4671.366224	1.359869	0.631222	7202.799316
4671.367305	1.322062	0.631222	8631.948242
4671.368318	0.675853	0.631222	9316.587891
4671.369189	0.093746	0.631222	9398.241211
4671.370178	0.087202	0.631222	9484.484375
4671.371223	0.087081	0.631222	9575.484375
4671.372132	0.086931	0.631222	9654.504883
4671.372994	0.087144	0.631222	9729.623047
4671.374086	0.087235	0.631222	9824.883789
4671.375057	0.087019	0.631222	9909.378906
4671.375941	0.087078	0.631222	9986.355469
4671.376942	0.087224	0.631222	10073.666992
4671.377983	0.087177	0.631222	10164.417969
