time (s)	coil I (A)	last det (V)	int current (uC)
6077.437964	1.086204	0.538562	525.722534
6077.438929	1.483532	0.538562	1957.330566
6077.439873	1.472366	0.538562	3347.243652
6077.440751	1.437561	0.538562	4609.422363
6077.441733	1.399629	0.538562	5983.857910
6077.442692	1.363660	0.538562	7291.607422
6077.443583	1.330474	0.538562	8477.059570
6077.444455	0.991282	0.538562	9341.457031
6077.445433	0.120007	0.538562	9458.824219
6077.446369	0.086968	0.538562	9540.225586
6077.447228	0.086993	0.538562	9614.953125
6077.448199	0.087202	0.538562	9699.625977
6077.449127	0.087085	0.538562	9780.440430
6077.450016	0.087074	0.538562	9857.849609
6077.450876	0.087089	0.538562	9932.746094
6077.451843	0.087177	0.538562	10017.045898
6077.452795	0.087195	0.538562	10100.055664
6077.453680	0.087056	0.538562	10177.099609
6078.473301	1.112798	0.620237	639.858765
6078.474303	1.487597	0.620237	2130.430420
6078.475194	1.469861	0.620237	3440.076416
6078.476054	1.434598	0.620237	4673.831055
6078.477138	1.393513	0.620237	6184.399414
6078.478046	1.358602	0.620237	7418.010254
6078.478925	1.326936	0.620237	8584.386719
6078.479924	0.759412	0.620237	9343.039062
6078.480920	0.092490	0.620237	9435.159180
6078.481808	0.087041	0.620237	9512.451172
6078.482670	0.087129	0.620237	9587.556641
6078.483773	0.087228	0.620237	9683.768555
6078.484697	0.086993	0.620237	9764.150391
6078.485573	0.087045	0.620237	9840.401367
6078.486575	0.087151	0.620237	9927.726562
6078.487569	0.087158	0.620237	10014.361328
6078.488455	0.087118	0.620237	10091.547852
6078.489311	0.087056	0.620237	10166.067383
6079.521229	1.000155	0.549753	439.068024
6079.522089	1.474662	0.549753	1707.277222
6079.523155	1.473190	0.549753	3277.697510
6079.524163	1.433643	0.549753	4722.809082
6079.525060	1.398691	0.549753	5977.435547
6079.526056	1.361151	0.549753	7333.142090
6079.527108	1.323259	0.549753	8725.210937
6079.528016	0.729650	0.549753	9387.732422
6079.528878	0.097471	0.549753	9471.751953
6079.530003	0.087045	0.549753	9569.676758
6079.530961	0.087118	0.549753	9653.135742
6079.531832	0.087056	0.549753	9728.960937
6079.532859	0.087272	0.549753	9818.588867
6079.533886	0.087140	0.549753	9908.081055
6079.534778	0.087118	0.549753	9985.790039
6079.535664	0.087129	0.549753	10062.986328
6079.536735	0.087103	0.549753	10156.274414
6079.537676	0.086913	0.549753	10238.059570
6080.560205	1.105518	0.622871	631.250549
6080.561116	1.485066	0.622871	1984.145508
6080.562042	1.471919	0.622871	3347.142578
6080.562922	1.436620	0.622871	4611.368164
6080.563959	1.396699	0.622871	6059.745117
6080.564860	1.362242	0.622871	7287.125488
6080.565738	1.330265	0.622871	8455.097656
6080.566719	0.895752	0.622871	9333.830078
6080.567670	0.104897	0.622871	9433.587891
6080.568593	0.086946	0.622871	9513.838867
6080.569460	0.087034	0.622871	9589.296875
6080.570502	0.087063	0.622871	9680.016602
6080.571383	0.087125	0.622871	9756.774414
6080.572248	0.087180	0.622871	9832.185547
6080.573177	0.087052	0.622871	9913.056641
6080.574159	0.087111	0.622871	9998.599609
6080.575074	0.086993	0.622871	10078.198242
6080.575948	0.087122	0.622871	10154.342773
6081.606694	1.071713	0.593190	556.218872
6081.607620	1.483967	0.593190	1930.372559
6081.608485	1.474695	0.593190	3205.983398
6081.609560	1.433778	0.593190	4747.294922
6081.610557	1.394341	0.593190	6137.452637
6081.611434	1.360986	0.593190	7331.037598
6081.612425	1.325757	0.593190	8644.862305
6081.613493	0.628444	0.593190	9316.040039
6081.614392	0.091560	0.593190	9398.352539
6081.615249	0.087122	0.593190	9473.015625
6081.616314	0.087279	0.593190	9565.967773
6081.617323	0.087103	0.593190	9653.854492
6081.618212	0.087092	0.593190	9731.279297
6081.619203	0.087345	0.593190	9817.837891
6081.620254	0.087125	0.593190	9909.406250
6081.621152	0.087151	0.593190	9987.667969
6081.622016	0.087122	0.593190	10062.941406
6081.623113	0.087294	0.593190	10158.702148
6082.644924	0.980588	0.610915	411.847137
6082.645951	1.481195	0.610915	1933.034546
6082.646977	1.469626	0.610915	3440.871094
6082.647873	1.434177	0.610915	4725.894043
6082.648801	1.397728	0.610915	6022.985840
6082.649878	1.356896	0.610915	7484.362305
6082.650826	1.322820	0.610915	8738.395508
6082.651697	0.762601	0.610915	9402.621094
6082.652770	0.091805	0.610915	9501.127930
6082.653765	0.087158	0.610915	9587.850586
6082.654652	0.086982	0.610915	9665.003906
6082.655637	0.087261	0.610915	9750.956055
6082.656697	0.087085	0.610915	9843.265625
6082.657598	0.087078	0.610915	9921.722656
6082.658457	0.087118	0.610915	9996.556641
6082.659541	0.087162	0.610915	10091.040039
6082.660537	0.087048	0.610915	10177.740234
6082.661417	0.087111	0.610915	10254.397461
6083.691498	0.997767	0.619963	467.952881
6083.692366	1.477738	0.619963	1750.629517
6083.693259	1.477053	0.619963	3069.637939
6083.694239	1.440359	0.619963	4481.189453
6083.695164	1.403888	0.619963	5779.785645
6083.696043	1.369453	0.619963	6983.535156
6083.697072	1.332579	0.619963	8354.758789
6083.697969	1.046748	0.619963	9293.691406
6083.698901	0.132949	0.619963	9417.599609
6083.699761	0.086927	0.619963	9492.357422
6083.700768	0.087144	0.619963	9580.111328
6083.701686	0.087092	0.619963	9660.062500
6083.702549	0.087206	0.619963	9735.321289
6083.703587	0.087136	0.619963	9825.768555
6083.704459	0.086887	0.619963	9901.534180
6083.705370	0.087202	0.619963	9980.975586
6083.706249	0.087107	0.619963	10057.542969
6083.707226	0.087140	0.619963	10142.678711
6084.731325	0.982570	0.623250	419.557220
6084.732368	1.480481	0.623250	1963.698975
6084.733410	1.468737	0.623250	3494.122559
6084.734287	1.433236	0.623250	4751.070312
6084.735229	1.396241	0.623250	6066.329590
6084.736287	1.356295	0.623250	7501.290039
6084.737222	1.322545	0.623250	8737.870117
6084.738097	0.763550	0.623250	9405.976562
6084.739152	0.092271	0.623250	9503.322266
6084.740167	0.087074	0.623250	9591.702148
6084.741050	0.086982	0.623250	9668.507812
6084.742004	0.087129	0.623250	9751.628906
6084.743061	0.087166	0.623250	9843.762695
6084.743995	0.087122	0.623250	9925.133789
6084.744855	0.087166	0.623250	10000.095703
6084.745929	0.087195	0.623250	10093.743164
6084.746932	0.087151	0.623250	10181.155273
6084.747821	0.087140	0.623250	10258.623047
6085.775432	1.087808	0.640894	617.874756
6085.776482	1.486622	0.640894	2178.828125
6085.777380	1.468253	0.640894	3497.319336
6085.778239	1.432130	0.640894	4727.519043
6085.779339	1.390239	0.640894	6256.782227
6085.780320	1.353673	0.640894	7584.735352
6085.781191	1.322432	0.640894	8736.573242
6085.782217	0.581151	0.640894	9332.833984
6085.783261	0.088517	0.640894	9425.245117
6085.784146	0.087092	0.640894	9502.322266
6085.785073	0.087272	0.640894	9583.223633
6085.786136	0.087202	0.640894	9675.919922
6085.787082	0.087085	0.640894	9758.302734
6085.787950	0.087048	0.640894	9833.860352
6085.789009	0.087316	0.640894	9926.328125
6085.790025	0.087103	0.640894	10014.825195
6085.790919	0.087187	0.640894	10092.770508
6085.791872	0.087158	0.640894	10175.832031
6086.815680	0.983837	0.650038	420.098236
6086.816671	1.479851	0.650038	1886.630737
6086.817564	1.475182	0.650038	3203.968262
6086.818490	1.439982	0.650038	4537.391602
6086.819357	1.404298	0.650038	5754.917969
6086.820332	1.367461	0.650038	7088.192383
6086.821265	1.333674	0.650038	8332.510742
6086.822144	1.119518	0.650038	9316.566406
6086.823152	0.135780	0.650038	9453.432617
6086.824048	0.086920	0.650038	9531.313477
6086.824960	0.087048	0.650038	9610.701172
6086.825835	0.086946	0.650038	9686.778320
6086.826798	0.087085	0.650038	9770.641602
6086.827750	0.087048	0.650038	9853.511719
6086.828643	0.087008	0.650038	9931.209961
6086.829629	0.087074	0.650038	10017.064453
6086.830535	0.086960	0.650038	10095.850586
6086.831439	0.087001	0.650038	10174.499023
6087.860161	0.982057	0.629679	422.284454
6087.861034	1.474259	0.629679	1709.312500
6087.862051	1.474541	0.629679	3208.920654
6087.863081	1.435305	0.629679	4687.285156
6087.863974	1.399534	0.629679	5937.068848
6087.864900	1.364286	0.629679	7200.397461
6087.865984	1.325050	0.629679	8636.751953
6087.866929	0.769724	0.629679	9364.141602
6087.867792	0.100089	0.629679	9450.518555
6087.868857	0.087209	0.629679	9543.396484
6087.869864	0.087059	0.629679	9631.065430
6087.870745	0.086960	0.629679	9707.677734
6087.871716	0.087177	0.629679	9792.326172
6087.872750	0.087206	0.629679	9882.497070
6087.873672	0.087081	0.629679	9962.786133
6087.874533	0.087133	0.629679	10037.807617
6087.875597	0.087283	0.629679	10130.676758
6087.876604	0.087089	0.629679	10218.375000
6088.902684	1.060540	0.668867	539.814636
6088.903597	1.482411	0.668867	1893.255859
6088.904457	1.474764	0.668867	3161.553223
6088.905544	1.434093	0.668867	4720.412598
6088.906552	1.394128	0.668867	6125.693848
6088.907424	1.360906	0.668867	7312.403809
6088.908413	1.324922	0.668867	8622.751953
6088.909483	0.626572	0.668867	9293.184570
6088.910380	0.091637	0.668867	9375.382812
6088.911241	0.087008	0.668867	9450.296875
6088.912332	0.087312	0.668867	9545.554687
6088.913309	0.087048	0.668867	9630.600586
6088.914172	0.087074	0.668867	9705.745117
6088.915240	0.087316	0.668867	9798.998047
6088.916292	0.087158	0.668867	9890.688477
6088.917182	0.087195	0.668867	9968.291992
6088.918103	0.087184	0.668867	10048.587891
6088.919182	0.087140	0.668867	10142.612305
6089.944026	1.019388	0.661398	465.860504
6089.944916	1.477526	0.661398	1780.858398
6089.945916	1.474504	0.661398	3255.362793
6089.946841	1.437598	0.661398	4585.140625
6089.947774	1.401295	0.661398	5892.548828
6089.948640	1.367036	0.661398	7076.402344
6089.949690	1.329921	0.661398	8472.819336
6089.950583	1.000723	0.661398	9366.464844
6089.951448	0.131261	0.661398	9480.005859
6089.952427	0.087074	0.661398	9565.250977
6089.953371	0.087144	0.661398	9647.514648
6089.954283	0.087107	0.661398	9726.956055
6089.955157	0.086949	0.661398	9802.950195
6089.956193	0.087070	0.661398	9893.155273
6089.957087	0.086979	0.661398	9970.914062
6089.957965	0.087081	0.661398	10047.371094
6089.958885	0.087140	0.661398	10127.540039
6089.959884	0.086968	0.661398	10214.420898
6090.989088	1.075312	0.684388	555.936584
6090.990009	1.483293	0.684388	1922.049805
6090.990870	1.474354	0.684388	3191.468750
6090.991957	1.433024	0.684388	4749.165527
6090.992951	1.393909	0.684388	6134.710937
6090.993836	1.360367	0.684388	7338.636230
6090.994813	1.325504	0.684388	8633.654297
6090.995868	0.642986	0.684388	9312.003906
6090.996774	0.091981	0.684388	9395.338867
6090.997630	0.087177	0.684388	9469.961914
6090.998723	0.087202	0.684388	9565.273437
6090.999725	0.087177	0.684388	9652.624023
6091.000599	0.087045	0.684388	9728.701172
6091.001578	0.087224	0.684388	9814.093750
6091.002620	0.087187	0.684388	9904.943359
6091.003523	0.087206	0.684388	9983.690430
6091.004389	0.087187	0.684388	10059.194336
6091.005480	0.087312	0.684388	10154.452148
6092.027318	0.978512	0.666824	412.932068
6092.028363	1.481594	0.666824	1961.198242
6092.029384	1.468506	0.666824	3460.542725
6092.030280	1.433298	0.666824	4744.778320
6092.031229	1.396212	0.666824	6069.783691
6092.032296	1.355629	0.666824	7516.239258
6092.033236	1.321783	0.666824	8758.715820
6092.034106	0.741819	0.666824	9404.098633
6092.035201	0.090648	0.666824	9503.358398
6092.036201	0.087085	0.666824	9590.443359
6092.037095	0.087206	0.666824	9668.405273
6092.038080	0.087220	0.666824	9754.317383
6092.039129	0.087070	0.666824	9845.654297
6092.040034	0.087228	0.666824	9924.595703
6092.040896	0.087220	0.666824	9999.779297
6092.041978	0.087202	0.666824	10094.131836
6092.042971	0.087213	0.666824	10180.734375
6092.043848	0.087151	0.666824	10257.166016
6093.076428	0.997881	0.678748	431.084503
6093.077306	1.475468	0.678748	1726.545044
6093.078274	1.476072	0.678748	3155.382324
6093.079306	1.436012	0.678748	4637.346680
6093.080202	1.400427	0.678748	5892.129395
6093.081066	1.366835	0.678748	7073.074707
6093.082169	1.327244	0.678748	8537.024414
6093.083123	0.854842	0.678748	9352.543945
6093.083995	0.106527	0.678748	9445.435547
6093.084946	0.087107	0.678748	9528.274414
6093.085952	0.087147	0.678748	9615.944336
6093.086841	0.087217	0.678748	9693.480469
6093.087702	0.087125	0.678748	9768.495117
6093.088754	0.087202	0.678748	9860.231445
6093.089690	0.087144	0.678748	9941.797852
6093.090563	0.087224	0.678748	10017.944336
6093.091490	0.087191	0.678748	10098.770508
6093.092544	0.087191	0.678748	10190.669922
6094.113723	0.979204	0.688758	415.182526
6094.114778	1.480759	0.688758	1977.383545
6094.115812	1.468022	0.688758	3495.318848
6094.116702	1.432562	0.688758	4770.299316
6094.117645	1.395278	0.688758	6086.046875
6094.118708	1.355482	0.688758	7526.924316
6094.119649	1.321535	0.688758	8770.488281
6094.120513	0.740321	0.688758	9410.125977
6094.121566	0.091512	0.688758	9506.488281
6094.122584	0.087147	0.688758	9595.204102
6094.123476	0.087198	0.688758	9672.985352
6094.124439	0.087286	0.688758	9757.041992
6094.125492	0.087198	0.688758	9848.862305
6094.126413	0.087198	0.688758	9929.171875
6094.127281	0.087114	0.688758	10004.787109
6094.128351	0.087264	0.688758	10098.160156
6094.129348	0.087078	0.688758	10184.976562
6094.130242	0.087136	0.688758	10262.875977
6095.160768	0.983760	0.706672	421.049164
6095.161671	1.473223	0.706672	1751.369263
6095.162689	1.473805	0.706672	3251.702637
6095.163583	1.438286	0.706672	4537.530273
6095.164473	1.403265	0.706672	5786.436523
6095.165493	1.365143	0.706672	7178.882324
6095.166408	1.330499	0.706672	8396.289062
6095.167340	1.013928	0.706672	9341.270508
6095.168207	0.133140	0.706672	9456.702148
6095.169255	0.087085	0.706672	9547.966797
6095.170141	0.087187	0.706672	9625.214844
6095.171056	0.087151	0.706672	9704.958008
6095.171920	0.087177	0.706672	9780.278320
6095.172912	0.087048	0.706672	9866.629883
6095.173831	0.087103	0.706672	9946.677734
6095.174694	0.087136	0.706672	10021.875977
6095.175697	0.087173	0.706672	10109.310547
6095.176589	0.087081	0.706672	10186.987305
6096.198153	1.051219	0.698253	527.712158
6096.199156	1.485165	0.698253	2017.332397
6096.200048	1.471739	0.698253	3330.124023
6096.201038	1.433178	0.698253	4748.969727
6096.202107	1.391338	0.698253	6236.310059
6096.203017	1.356683	0.698253	7470.892090
6096.203884	1.324149	0.698253	8618.929687
6096.204982	0.607657	0.698253	9286.137695
6096.205934	0.090088	0.698253	9371.901367
6096.206793	0.087041	0.698253	9446.669922
6096.207863	0.087191	0.698253	9539.964844
6096.208895	0.087166	0.698253	9629.919922
6096.209770	0.087191	0.698253	9706.211914
6096.210685	0.087078	0.698253	9785.887695
6096.211763	0.087081	0.698253	9879.761719
6096.212708	0.087096	0.698253	9962.067383
6096.213566	0.087081	0.698253	10036.783203
6096.214596	0.087206	0.698253	10126.605469
6097.246653	0.979625	0.703256	415.361084
6097.247684	1.478284	0.703256	1939.471680
6097.248740	1.468103	0.703256	3489.788574
6097.249618	1.432507	0.703256	4747.530273
6097.250523	1.396055	0.703256	6010.959961
6097.251619	1.355383	0.703256	7496.459961
6097.252581	1.321227	0.703256	8767.480469
6097.253457	0.729338	0.703256	9406.380859
6097.254483	0.091981	0.703256	9500.753906
6097.255512	0.087111	0.703256	9590.390625
6097.256400	0.086975	0.703256	9667.625000
6097.257349	0.086975	0.703256	9750.164062
6097.258412	0.087213	0.703256	9842.872070
6097.259353	0.087070	0.703256	9924.805664
6097.260213	0.087136	0.703256	9999.743164
6097.261287	0.087206	0.703256	10093.402344
6097.262300	0.087023	0.703256	10181.556641
6097.263190	0.087114	0.703256	10259.087891
6098.283450	0.977479	0.703188	411.518738
6098.284420	1.473864	0.703188	1841.166504
6098.285452	1.470648	0.703188	3358.875488
6098.286350	1.435719	0.703188	4648.151367
6098.287215	1.400596	0.703188	5859.666504
6098.288288	1.360338	0.703188	7319.309570
6098.289233	1.326240	0.703188	8572.606445
6098.290116	0.913381	0.703188	9379.122070
6098.291064	0.114166	0.703188	9487.351562
6098.292109	0.087078	0.703188	9578.347656
6098.293004	0.087180	0.703188	9656.374023
6098.293863	0.087158	0.703188	9731.243164
6098.294934	0.087224	0.703188	9824.660156
6098.295870	0.087070	0.703188	9906.158203
6098.296741	0.087202	0.703188	9982.111328
6098.297691	0.087144	0.703188	10064.897461
6098.298736	0.087144	0.703188	10155.962891
6098.299615	0.087177	0.703188	10232.590820
6099.331093	1.061393	0.726774	533.880554
6099.332099	1.485121	0.726774	2027.912109
6099.332990	1.471179	0.726774	3338.732666
6099.333971	1.433416	0.726774	4744.913086
6099.335030	1.391561	0.726774	6218.576172
6099.335940	1.357042	0.726774	7453.484375
6099.336802	1.324468	0.726774	8595.175781
6099.337911	0.623950	0.726774	9287.136719
6099.338909	0.089238	0.726774	9376.196289
6099.339790	0.086982	0.726774	9452.828125
6099.340788	0.087173	0.726774	9539.826172
6099.341839	0.087048	0.726774	9631.314453
6099.342713	0.087158	0.726774	9707.490234
6099.343598	0.087261	0.726774	9784.715820
6099.344685	0.087125	0.726774	9879.420898
6099.345659	0.087107	0.726774	9964.262695
6099.346526	0.087144	0.726774	10039.816406
6099.347542	0.087125	0.726774	10128.335937
6100.368385	1.013353	0.727785	501.609894
6100.369296	1.480737	0.727785	1850.561523
6100.370216	1.474318	0.727785	3206.933838
6100.371101	1.439963	0.727785	4481.301270
6100.372083	1.400570	0.727785	5856.661133
6100.373044	1.364484	0.727785	7167.929687
6100.373935	1.331887	0.727785	8354.641602
6100.374937	0.944235	0.727785	9300.764648
6100.375847	0.116349	0.727785	9406.642578
6100.376775	0.086916	0.727785	9487.300781
6100.377643	0.087195	0.727785	9562.986328
6100.378581	0.087019	0.727785	9644.610352
6100.379523	0.087026	0.727785	9726.588867
6100.380417	0.087217	0.727785	9804.560547
6100.381363	0.087118	0.727785	9886.973633
6100.382336	0.087015	0.727785	9971.639648
6100.383264	0.087118	0.727785	10052.485352
6100.384130	0.087089	0.727785	10127.904297
6101.415880	0.990604	0.721549	428.931641
6101.416786	1.473981	0.721549	1764.358154
6101.417868	1.470560	0.721549	3355.504395
6101.418816	1.433478	0.721549	4714.441406
6101.419681	1.399091	0.721549	5924.654785
6101.420746	1.359239	0.721549	7372.244629
6101.421782	1.321941	0.721549	8741.775391
6101.422660	0.747502	0.721549	9398.082031
6101.423608	0.098086	0.721549	9491.067383
6101.424661	0.087140	0.721549	9582.826172
6101.425593	0.087081	0.721549	9663.986328
6101.426458	0.087129	0.721549	9739.352539
6101.427512	0.087209	0.721549	9831.271484
6101.428521	0.087125	0.721549	9919.180664
6101.429408	0.087169	0.721549	9996.500000
6101.430370	0.087107	0.721549	10080.296875
6101.431428	0.087283	0.721549	10172.641602
6101.432350	0.087026	0.721549	10252.879883
6102.454812	1.065934	0.723619	545.758118
6102.455701	1.481016	0.723619	1862.380859
6102.456560	1.473842	0.723619	3128.410645
6102.457668	1.432705	0.723619	4715.847656
6102.458641	1.394824	0.723619	6073.011719
6102.459512	1.361884	0.723619	7259.212402
6102.460571	1.323113	0.723619	8660.388672
6102.461619	0.606603	0.723619	9296.108398
6102.462503	0.091556	0.723619	9377.043945
6102.463427	0.087202	0.723619	9457.619141
6102.464481	0.087180	0.723619	9549.506836
6102.465427	0.087041	0.723619	9631.847656
6102.466297	0.087096	0.723619	9707.621094
6102.467352	0.087136	0.723619	9799.549805
6102.468376	0.087089	0.723619	9888.728516
6102.469270	0.087019	0.723619	9966.523437
6102.470220	0.087239	0.723619	10049.400391
6102.471268	0.087147	0.723619	10140.730469
6103.501351	1.079744	0.730012	574.423584
6103.502262	1.483048	0.730012	1925.480347
6103.503196	1.471963	0.730012	3300.293701
6103.504063	1.436624	0.730012	4545.846191
6103.505121	1.396714	0.730012	6023.569336
6103.506006	1.362697	0.730012	7229.555664
6103.506879	1.331125	0.730012	8391.627930
6103.507889	0.913982	0.730012	9314.750000
6103.508791	0.111398	0.730012	9415.230469
6103.509698	0.086953	0.730012	9494.096680
6103.510575	0.087133	0.730012	9570.511719
6103.511606	0.087023	0.730012	9660.232422
6103.512500	0.087041	0.730012	9738.046875
6103.513372	0.086979	0.730012	9813.892578
6103.514326	0.087067	0.730012	9896.954102
6103.515299	0.086990	0.730012	9981.594727
6103.516227	0.087001	0.730012	10062.331055
6103.517091	0.087100	0.730012	10137.584961
6104.538564	0.985690	0.747616	425.817963
6104.539429	1.473157	0.747616	1700.098633
6104.540487	1.472501	0.747616	3258.004883
6104.541508	1.433101	0.747616	4721.200684
6104.542395	1.398007	0.747616	5961.232422
6104.543360	1.361810	0.747616	7275.379395
6104.544431	1.322776	0.747616	8692.072266
6104.545362	0.728331	0.747616	9370.148437
6104.546222	0.097390	0.747616	9453.904297
6104.547306	0.087129	0.747616	9548.351562
6104.548306	0.086953	0.747616	9635.304687
6104.549197	0.087118	0.747616	9712.926758
6104.550190	0.087268	0.747616	9799.583984
6104.551239	0.087184	0.747616	9891.040039
6104.552134	0.087100	0.747616	9968.994141
6104.552993	0.087297	0.747616	10043.982422
6104.554102	0.087268	0.747616	10140.762695
6104.555068	0.086902	0.747616	10224.709961
6105.586728	1.067988	0.736321	571.373718
6105.587795	1.485725	0.736321	2156.642334
6105.588686	1.467462	0.736321	3464.151123
6105.589565	1.431456	0.736321	4722.401367
6105.590672	1.389441	0.736321	6260.512695
6105.591646	1.353109	0.736321	7578.440918
6105.592520	1.321578	0.736321	8733.500000
6105.593566	0.557161	0.736321	9316.290039
6105.594615	0.088345	0.736321	9408.963867
6105.595505	0.087191	0.736321	9486.564453
6105.596421	0.087081	0.736321	9566.331055
6105.597496	0.087202	0.736321	9660.073242
6105.598446	0.087004	0.736321	9742.727539
6105.599313	0.087195	0.736321	9818.325195
6105.600361	0.087187	0.736321	9909.697266
6105.601381	0.087001	0.736321	9998.438477
6105.602270	0.087078	0.736321	10075.850586
6105.603225	0.087166	0.736321	10159.093750
6106.624517	1.049114	0.736595	516.164001
6106.625400	1.479774	0.736595	1822.804443
6106.626329	1.473926	0.736595	3192.081543
6106.627420	1.432112	0.736595	4754.515625
6106.628371	1.394824	0.736595	6080.993652
6106.629237	1.361499	0.736595	7260.051758
6106.630295	1.323728	0.736595	8660.555664
6106.631319	0.633292	0.736595	9309.046875
6106.632206	0.092366	0.736595	9390.975586
6106.633162	0.087136	0.736595	9474.277344
6106.634199	0.087111	0.736595	9564.611328
6106.635119	0.087198	0.736595	9644.833984
6106.635981	0.087103	0.736595	9719.916992
6106.637054	0.087078	0.736595	9813.351562
6106.638054	0.087114	0.736595	9900.465820
6106.638927	0.087114	0.736595	9976.516602
6106.639915	0.087202	0.736595	10062.671875
6106.640962	0.087085	0.736595	10153.849609
6107.672006	0.989678	0.745538	425.561401
6107.672959	1.473706	0.745538	1830.003296
6107.674020	1.469927	0.745538	3389.595703
6107.674949	1.433463	0.745538	4721.283203
6107.675810	1.398171	0.745538	5925.108887
6107.676866	1.358727	0.745538	7359.924316
6107.677901	1.321875	0.745538	8728.064453
6107.678784	0.752186	0.745538	9392.245117
6107.679758	0.097236	0.745538	9486.953125
6107.680817	0.087078	0.745538	9579.167969
6107.681731	0.087034	0.745538	9658.716797
6107.682596	0.087209	0.745538	9734.153320
6107.683675	0.087129	0.745538	9828.165039
6107.684671	0.087081	0.745538	9914.898437
6107.685565	0.087052	0.745538	9992.722656
6107.686546	0.087202	0.745538	10078.267578
6107.687598	0.087177	0.745538	10169.977539
6107.688494	0.087026	0.745538	10247.953125
6108.709306	0.985400	0.764559	418.795166
6108.710170	1.472725	0.764559	1691.229126
6108.711221	1.473157	0.764559	3239.517090
6108.712107	1.438813	0.764559	4514.305664
6108.712981	1.404294	0.764559	5741.659180
6108.713993	1.366641	0.764559	7124.699707
6108.714920	1.331488	0.764559	8358.989258
6108.715852	1.045265	0.764559	9333.175781
6108.716714	0.143046	0.764559	9456.481445
6108.717742	0.087063	0.764559	9545.982422
6108.718635	0.086960	0.764559	9623.637695
6108.719509	0.087030	0.764559	9699.702148
6108.720460	0.087206	0.764559	9782.634766
6108.721427	0.087015	0.764559	9866.778320
6108.722353	0.087114	0.764559	9947.446289
6108.723218	0.087158	0.764559	10022.837891
6108.724250	0.087180	0.764559	10112.807617
6108.725137	0.087067	0.764559	10190.036133
6109.756470	1.105525	0.758267	601.405518
6109.757516	1.486014	0.758267	2155.776367
6109.758411	1.467942	0.758267	3469.584473
6109.759303	1.431826	0.758267	4746.773437
6109.760404	1.389730	0.758267	6276.866211
6109.761350	1.354160	0.758267	7557.901855
6109.762215	1.322670	0.758267	8702.010742
6109.763269	0.615831	0.758267	9351.096680
6109.764294	0.089106	0.758267	9442.430664
6109.765176	0.087041	0.758267	9519.201172
6109.766144	0.087202	0.758267	9603.613281
6109.767187	0.087144	0.758267	9694.503906
6109.768108	0.087147	0.758267	9774.766602
6109.768964	0.087155	0.758267	9849.371094
6109.770019	0.087231	0.758267	9941.400391
6109.771021	0.087136	0.758267	10028.710937
6109.771890	0.087074	0.758267	10104.377930
6109.772841	0.087231	0.758267	10187.334961
6110.794692	0.991392	0.761860	428.281158
6110.795566	1.473830	0.761860	1716.408936
6110.796428	1.478357	0.761860	2990.752441
6110.797488	1.439194	0.761860	4516.298340
6110.798385	1.403207	0.761860	5774.974609
6110.799261	1.369849	0.761860	6974.961914
6110.800216	1.335407	0.761860	8250.275391
6110.801195	1.081014	0.761860	9308.588867
6110.802123	0.142943	0.761860	9441.240234
6110.802989	0.087070	0.761860	9516.643555
6110.804040	0.087034	0.761860	9608.116211
6110.804908	0.087059	0.761860	9683.683594
6110.805786	0.087030	0.761860	9760.095703
6110.806668	0.087147	0.761860	9836.959961
6110.807720	0.087089	0.761860	9928.577148
6110.808619	0.087070	0.761860	10006.853516
6110.809497	0.087122	0.761860	10083.346680
6110.810484	0.087129	0.761860	10169.342773
6111.841723	0.979325	0.748281	413.275085
6111.842697	1.474757	0.748281	1849.688477
6111.843757	1.468953	0.748281	3406.778320
6111.844675	1.432998	0.748281	4722.270508
6111.845539	1.397575	0.748281	5929.774902
6111.846639	1.357020	0.748281	7422.497070
6111.847633	1.321066	0.748281	8735.636719
6111.848538	0.716975	0.748281	9384.499023
6111.849512	0.095017	0.748281	9477.045898
6111.850577	0.087081	0.748281	9569.787109
6111.851468	0.087187	0.748281	9647.470703
6111.852349	0.087125	0.748281	9724.228516
6111.853450	0.087191	0.748281	9820.225586
6111.854409	0.087103	0.748281	9903.757812
6111.855268	0.087180	0.748281	9978.645508
6111.856307	0.087349	0.748281	10069.400391
6111.857338	0.087275	0.748281	10159.380859
6111.858217	0.087114	0.748281	10235.954102
6112.879547	0.979779	0.768483	413.466766
6112.880498	1.473347	0.768483	1814.619995
6112.881399	1.475493	0.768483	3144.039307
6112.882329	1.440249	0.768483	4483.470703
6112.883194	1.405389	0.768483	5699.132812
6112.884212	1.366351	0.768483	7090.078125
6112.885184	1.331422	0.768483	8384.220703
6112.886056	1.084127	0.768483	9329.580078
6112.887050	0.145474	0.768483	9474.180664
6112.887956	0.087107	0.768483	9553.099609
6112.888877	0.086986	0.768483	9633.213867
6112.889752	0.087166	0.768483	9709.483398
6112.890717	0.087239	0.768483	9793.668945
6112.891645	0.087206	0.768483	9874.595703
6112.892571	0.087059	0.768483	9955.212891
6112.893432	0.087173	0.768483	10030.268555
6112.894428	0.087089	0.768483	10117.008789
6112.895361	0.087319	0.768483	10198.477539
6113.925052	0.979347	0.770014	413.284393
6113.926064	1.478994	0.770014	1910.026489
6113.927135	1.467616	0.770014	3481.843262
6113.928014	1.432343	0.770014	4740.872070
6113.928946	1.395385	0.770014	6041.370605
6113.930031	1.354654	0.770014	7511.170898
6113.930975	1.320853	0.770014	8758.056641
6113.931853	0.730206	0.770014	9399.177734
6113.932889	0.091575	0.770014	9494.048828
6113.933909	0.086949	0.770014	9582.737305
6113.934796	0.087085	0.770014	9659.981445
6113.935758	0.087217	0.770014	9743.883789
6113.936805	0.087151	0.770014	9835.130859
6113.937734	0.086982	0.770014	9915.937500
6113.938598	0.086975	0.770014	9991.083984
6113.939670	0.087118	0.770014	10084.474609
6113.940660	0.087048	0.770014	10170.652344
6113.941554	0.087030	0.770014	10248.457031
6114.965502	1.017583	0.761188	498.615662
6114.966569	1.484304	0.761188	2082.368164
6114.967516	1.467279	0.761188	3471.881348
6114.968384	1.432621	0.761188	4715.396484
6114.969432	1.391909	0.761188	6174.117187
6114.970462	1.353138	0.761188	7567.849609
6114.971347	1.321285	0.761188	8737.187500
6114.972325	0.652203	0.761188	9375.041992
6114.973372	0.089520	0.761188	9468.769531
6114.974290	0.087100	0.761188	9548.726562
6114.975153	0.087100	0.761188	9623.893555
6114.976212	0.087250	0.761188	9716.291016
6114.977210	0.087026	0.761188	9803.143555
6114.978085	0.087078	0.761188	9879.336914
6114.979064	0.087162	0.761188	9964.667969
6114.980110	0.087272	0.761188	10055.954102
6114.981024	0.087261	0.761188	10135.709961
6114.981891	0.087180	0.761188	10211.294922
6116.010008	1.063817	0.760338	539.355286
6116.010924	1.482089	0.760338	1896.948486
6116.011809	1.473757	0.760338	3201.223633
6116.012805	1.435964	0.760338	4631.444336
6116.013811	1.395399	0.760338	6035.215820
6116.014712	1.361484	0.760338	7261.913086
6116.015577	1.328892	0.760338	8411.404297
6116.016689	0.773452	0.760338	9271.483398
6116.017599	0.096764	0.760338	9359.538086
6116.018471	0.087012	0.760338	9435.412109
6116.019492	0.087235	0.760338	9524.479492
6116.020489	0.087085	0.760338	9611.302734
6116.021376	0.087081	0.760338	9688.543945
6116.022233	0.087213	0.760338	9763.285156
6116.023307	0.087155	0.760338	9856.888672
6116.024210	0.087209	0.760338	9935.638672
6116.025088	0.087096	0.760338	10012.109375
6116.026060	0.087217	0.760338	10096.883789
6117.051834	1.004194	0.761989	426.782623
6117.052930	1.483099	0.761989	2052.259521
6117.053901	1.467744	0.761989	3477.438965
6117.054769	1.433485	0.761989	4721.704102
6117.055803	1.392521	0.761989	6161.570312
6117.056840	1.353834	0.761989	7565.496582
6117.057739	1.321231	0.761989	8753.283203
6117.058703	0.679922	0.761989	9408.727539
6117.059750	0.089590	0.761989	9502.528320
6117.060688	0.087004	0.761989	9584.138672
6117.061548	0.087111	0.761989	9659.053711
6117.062616	0.087345	0.761989	9752.337891
6117.063623	0.087114	0.761989	9840.061523
6117.064512	0.087034	0.761989	9917.434570
6117.065478	0.087305	0.761989	10001.770508
6117.066519	0.087191	0.761989	10092.536133
6117.067434	0.087129	0.761989	10172.258789
6117.068294	0.087136	0.761989	10247.196289
6118.093765	0.988026	0.780169	427.815308
6118.094629	1.472571	0.780169	1700.116455
6118.095659	1.472827	0.780169	3217.128418
6118.096706	1.433123	0.780169	4717.607910
6118.097601	1.397454	0.780169	5968.329102
6118.098530	1.362261	0.780169	7233.869141
6118.099609	1.323300	0.780169	8661.708984
6118.100560	0.729034	0.780169	9355.020508
6118.101422	0.097295	0.780169	9438.888672
6118.102476	0.087173	0.780169	9530.768555
6118.103493	0.087133	0.780169	9619.382812
6118.104370	0.087133	0.780169	9695.797852
6118.105346	0.087180	0.780169	9780.885742
6118.106387	0.087213	0.780169	9871.674805
6118.107304	0.087158	0.780169	9951.598633
6118.108164	0.087261	0.780169	10026.642578
6118.109232	0.087275	0.780169	10119.852539
6118.110244	0.087048	0.780169	10207.945312
6119.136282	1.060800	0.773514	535.703796
6119.137199	1.481602	0.773514	1894.332520
6119.138068	1.474347	0.773514	3175.540039
6119.139046	1.436635	0.773514	4580.568359
6119.140077	1.396168	0.773514	6020.017578
6119.140962	1.362539	0.773514	7225.864746
6119.141828	1.330129	0.773514	8377.756836
6119.142898	0.836177	0.773514	9272.465820
6119.143835	0.099738	0.773514	9365.919922
6119.144706	0.086924	0.773514	9441.630859
6119.145673	0.087250	0.773514	9526.000977
6119.146700	0.087122	0.773514	9615.474609
6119.147591	0.087184	0.773514	9693.155273
6119.148453	0.087151	0.773514	9768.279297
6119.149520	0.086887	0.773514	9860.988281
6119.150453	0.087078	0.773514	9942.231445
6119.151326	0.087191	0.773514	10018.349609
6119.152273	0.087231	0.773514	10100.958008
6120.178754	1.107825	0.763556	614.842712
6120.179812	1.486212	0.763556	2187.255127
6120.180709	1.466887	0.763556	3503.052979
6120.181645	1.429999	0.763556	4841.531738
6120.182709	1.388137	0.763556	6318.509766
6120.183648	1.352941	0.763556	7588.920898
6120.184522	1.321311	0.763556	8743.747070
6120.185587	0.536118	0.763556	9314.712891
6120.186617	0.087957	0.763556	9405.308594
6120.187507	0.087052	0.763556	9482.785156
6120.188451	0.087209	0.763556	9565.111328
6120.189491	0.087169	0.763556	9655.767578
6120.190412	0.087114	0.763556	9736.000000
6120.191271	0.087045	0.763556	9810.771484
6120.192342	0.087301	0.763556	9904.270508
6120.193336	0.087078	0.763556	9990.826172
6120.194228	0.087209	0.763556	10068.617187
6120.195215	0.087180	0.763556	10154.664062
6121.222667	1.051604	0.763584	524.750427
6121.223598	1.482246	0.763584	1904.721680
6121.224462	1.474043	0.763584	3178.294678
6121.225532	1.433020	0.763584	4711.625977
6121.226557	1.392913	0.763584	6139.361328
6121.227452	1.358958	0.763584	7355.628418
6121.228434	1.324017	0.763584	8655.813477
6121.229489	0.618512	0.763584	9308.343750
6121.230387	0.091179	0.763584	9390.222656
6121.231244	0.087122	0.763584	9464.885742
6121.232327	0.087308	0.763584	9559.440430
6121.233318	0.087085	0.763584	9645.741211
6121.234192	0.087111	0.763584	9721.875977
6121.235194	0.087389	0.763584	9809.439453
6121.236240	0.087133	0.763584	9900.580078
6121.237117	0.087191	0.763584	9977.046875
6121.237983	0.087202	0.763584	10052.563477
6121.239064	0.087242	0.763584	10146.872070
6122.262044	1.048158	0.765204	552.379211
6122.263076	1.485677	0.765204	2085.598389
6122.263973	1.469194	0.765204	3403.465820
6122.264841	1.434166	0.765204	4648.322266
6122.265931	1.392107	0.765204	6165.718750
6122.266868	1.356599	0.765204	7436.852051
6122.267753	1.324786	0.765204	8609.288086
6122.268739	0.747323	0.765204	9346.148437
6122.269752	0.091370	0.765204	9438.706055
6122.270643	0.087012	0.765204	9516.233398
6122.271503	0.087103	0.765204	9591.142578
6122.272565	0.087118	0.765204	9683.662109
6122.273498	0.086986	0.765204	9764.820312
6122.274374	0.087235	0.765204	9841.238281
6122.275344	0.087209	0.765204	9925.831055
6122.276363	0.087151	0.765204	10014.637695
6122.277249	0.087107	0.765204	10091.814453
6122.278107	0.087111	0.765204	10166.555664
6123.308576	1.071573	0.766408	548.645630
6123.309601	1.485352	0.766408	2071.130859
6123.310495	1.469535	0.766408	3384.895020
6123.311455	1.432295	0.766408	4759.898437
6123.312514	1.390459	0.766408	6232.394531
6123.313445	1.355310	0.766408	7494.188477
6123.314309	1.323530	0.766408	8637.718750
6123.315386	0.615817	0.766408	9300.953125
6123.316390	0.089092	0.766408	9390.401367
6123.317266	0.087213	0.766408	9466.799805
6123.318264	0.087308	0.766408	9553.933594
6123.319297	0.087231	0.766408	9644.043945
6123.320207	0.087133	0.766408	9723.334961
6123.321064	0.087195	0.766408	9798.060547
6123.322124	0.087426	0.766408	9890.731445
6123.323108	0.087187	0.766408	9976.524414
6123.323998	0.087114	0.766408	10054.055664
6123.324976	0.087202	0.766408	10139.339844
6124.345882	1.062155	0.773829	542.760986
6124.346780	1.481473	0.773829	1873.124023
6124.347648	1.473593	0.773829	3152.202148
6124.348757	1.431680	0.773829	4739.935059
6124.349736	1.393081	0.773829	6103.761719
6124.350618	1.360071	0.773829	7303.344238
6124.351624	1.323878	0.773829	8635.166016
6124.352692	0.618369	0.773829	9295.583984
6124.353581	0.091077	0.773829	9376.550781
6124.354458	0.087213	0.773829	9453.037109
6124.355537	0.087224	0.773829	9547.152344
6124.356488	0.087026	0.773829	9629.914062
6124.357350	0.086975	0.773829	9704.886719
6124.358387	0.087169	0.773829	9795.281250
6124.359427	0.087177	0.773829	9885.945312
6124.360311	0.087034	0.773829	9962.882812
6124.361241	0.087231	0.773829	10044.007812
6124.362291	0.087070	0.773829	10135.431641
6125.393350	0.997148	0.759657	432.762421
6125.394218	1.473651	0.759657	1711.891724
6125.395220	1.474479	0.759657	3189.319580
6125.396222	1.435503	0.759657	4627.693359
6125.397111	1.400537	0.759657	5872.770508
6125.397971	1.366355	0.759657	7047.835937
6125.399046	1.328185	0.759657	8475.634766
6125.399975	0.932230	0.759657	9341.676758
6125.400856	0.115814	0.759657	9443.708984
6125.401838	0.087089	0.759657	9529.230469
6125.402835	0.087048	0.759657	9616.017578
6125.403724	0.087026	0.759657	9693.383789
6125.404582	0.087169	0.759657	9768.174805
6125.405659	0.087078	0.759657	9861.957031
6125.406590	0.087151	0.759657	9943.094727
6125.407465	0.087056	0.759657	10019.268555
6125.408455	0.087224	0.759657	10105.620117
6125.409460	0.086953	0.759657	10193.007812
6126.429191	1.045283	0.799984	521.596313
6126.430068	1.478851	0.799984	1818.548950
6126.430985	1.473735	0.799984	3169.964355
6126.432072	1.432577	0.799984	4727.175293
6126.433024	1.395245	0.799984	6055.448730
6126.433884	1.362026	0.799984	7226.791504
6126.434934	1.324003	0.799984	8616.994141
6126.435974	0.657718	0.799984	9301.021484
6126.436854	0.093135	0.799984	9382.980469
6126.437810	0.087125	0.799984	9466.272461
6126.438867	0.087177	0.799984	9558.417969
6126.439783	0.087257	0.799984	9638.345703
6126.440653	0.087173	0.799984	9714.186523
6126.441724	0.087242	0.799984	9807.623047
6126.442728	0.087048	0.799984	9895.019531
6126.443613	0.087122	0.799984	9972.122070
6126.444587	0.087220	0.799984	10057.075195
6126.445647	0.087279	0.799984	10149.590820
6127.478793	1.047561	0.746585	524.828064
6127.479701	1.480953	0.746585	1869.533691
6127.480566	1.474215	0.746585	3144.729736
6127.481661	1.432800	0.746585	4713.645996
6127.482667	1.393147	0.746585	6115.151855
6127.483563	1.359415	0.746585	7333.187988
6127.484544	1.324270	0.746585	8632.296875
6127.485605	0.634091	0.746585	9305.067383
6127.486512	0.091058	0.746585	9387.657227
6127.487376	0.087078	0.746585	9462.892578
6127.488471	0.087220	0.746585	9558.399414
6127.489433	0.087023	0.746585	9642.115234
6127.490302	0.087166	0.746585	9717.862305
6127.491331	0.087180	0.746585	9807.570312
6127.492381	0.087209	0.746585	9899.140625
6127.493256	0.087155	0.746585	9975.400391
6127.494132	0.087187	0.746585	10051.776367
6127.495230	0.087279	0.746585	10147.608398
6128.514486	0.977662	0.787976	410.618195
6128.515513	1.479998	0.787976	1930.575562
6128.516426	1.471802	0.787976	3274.330566
6128.517348	1.436312	0.787976	4598.610352
6128.518216	1.400508	0.787976	5814.250977
6128.519276	1.361609	0.787976	7257.556641
6128.520167	1.329181	0.787976	8441.856445
6128.521039	1.042749	0.787976	9351.133789
6128.522050	0.129386	0.787976	9481.943359
6128.522950	0.086953	0.787976	9560.201172
6128.523873	0.087015	0.787976	9640.516602
6128.524750	0.087147	0.787976	9716.944336
6128.525778	0.087158	0.787976	9806.542969
6128.526676	0.087012	0.787976	9884.679687
6128.527545	0.087067	0.787976	9960.340820
6128.528508	0.087151	0.787976	10044.267578
6128.529469	0.087155	0.787976	10128.023437
6128.530382	0.087045	0.787976	10207.495117
6129.563074	0.979933	0.745997	417.451385
6129.563979	1.473076	0.745997	1750.585327
6129.565068	1.469952	0.745997	3351.363525
6129.566022	1.432910	0.745997	4718.359863
6129.566883	1.398516	0.745997	5922.481934
6129.567917	1.359364	0.745997	7328.064453
6129.568952	1.322003	0.745997	8696.337891
6129.569858	0.751421	0.745997	9377.125000
6129.570811	0.097778	0.745997	9470.307617
6129.571868	0.087081	0.745997	9562.352539
6129.572800	0.087078	0.745997	9643.508789
6129.573668	0.087045	0.745997	9719.063477
6129.574735	0.087209	0.745997	9812.116211
6129.575744	0.087008	0.745997	9899.907227
6129.576636	0.086957	0.745997	9977.472656
6129.577595	0.087246	0.745997	10061.141602
6129.578654	0.087206	0.745997	10153.492187
6129.579571	0.086840	0.745997	10233.124023
6130.598428	1.066838	0.791605	544.087585
6130.599359	1.482700	0.791605	1924.481445
6130.600221	1.473391	0.791605	3194.544434
6130.601299	1.432189	0.791605	4738.443848
6130.602300	1.392623	0.791605	6132.459961
6130.603188	1.359210	0.791605	7339.438477
6130.604180	1.324039	0.791605	8652.885742
6130.605233	0.623386	0.791605	9309.311523
6130.606139	0.091227	0.791605	9391.962891
6130.607001	0.087070	0.791605	9467.017578
6130.608093	0.087294	0.791605	9562.342773
6130.609083	0.087206	0.791605	9648.676758
6130.609957	0.087177	0.791605	9724.869141
6130.610949	0.087177	0.791605	9811.348633
6130.612009	0.087144	0.791605	9903.720703
6130.612900	0.087136	0.791605	9981.359375
6130.613770	0.087195	0.791605	10057.218750
6130.614864	0.087209	0.791605	10152.625977
6131.647937	1.012617	0.741670	433.400116
6131.648985	1.483660	0.741670	1988.275391
6131.649878	1.471593	0.741670	3302.407959
6131.650754	1.437590	0.741670	4561.737305
6131.651750	1.398852	0.741670	5954.994141
6131.652687	1.362436	0.741670	7231.597168
6131.653615	1.329060	0.741670	8464.964844
6131.654486	0.990253	0.741670	9327.474609
6131.655531	0.106798	0.741670	9439.078125
6131.656407	0.086997	0.741670	9515.287109
6131.657276	0.087070	0.741670	9590.951172
6131.658274	0.087162	0.741670	9677.938477
6131.659196	0.087140	0.741670	9758.281250
6131.660114	0.087133	0.741670	9838.268555
6131.660990	0.087114	0.741670	9914.581055
6131.662012	0.087173	0.741670	10003.671875
6131.662913	0.087136	0.741670	10082.181641
6131.663789	0.087242	0.741670	10158.606445
6132.683779	1.019960	0.773816	507.939911
6132.684848	1.484436	0.773816	2094.802002
6132.685790	1.466554	0.773816	3476.295898
6132.686660	1.431603	0.773816	4721.790527
6132.687731	1.390239	0.773816	6210.736816
6132.688743	1.352117	0.773816	7579.079102
6132.689634	1.320311	0.773816	8755.476562
6132.690619	0.613451	0.773816	9359.725586
6132.691669	0.088802	0.773816	9452.967773
6132.692593	0.087169	0.773816	9533.511719
6132.693454	0.087151	0.773816	9608.548828
6132.694532	0.087272	0.773816	9702.627930
6132.695524	0.087151	0.773816	9789.082031
6132.696413	0.087122	0.773816	9866.533203
6132.697407	0.087264	0.773816	9953.274414
6132.698460	0.087136	0.773816	10045.029297
6132.699348	0.087111	0.773816	10122.383789
6132.700209	0.087231	0.773816	10197.490234
6133.733304	0.988627	0.749348	416.211853
6133.734394	1.482023	0.749348	2031.616455
6133.735395	1.466700	0.749348	3499.783691
6133.736271	1.431951	0.749348	4754.172363
6133.737275	1.393279	0.749348	6153.024414
6133.738332	1.353684	0.749348	7583.868652
6133.739226	1.320773	0.749348	8764.639648
6133.740089	0.723365	0.749348	9388.904297
6133.741196	0.090509	0.749348	9489.097656
6133.742154	0.087191	0.749348	9572.626953
6133.743018	0.087177	0.749348	9647.947266
6133.744082	0.087235	0.749348	9740.765625
6133.745118	0.087107	0.749348	9831.008789
6133.746008	0.087048	0.749348	9908.481445
6133.746917	0.087206	0.749348	9987.751953
6133.748001	0.087338	0.749348	10082.425781
6133.748942	0.087147	0.749348	10164.431641
6133.749806	0.087059	0.749348	10239.651367
6134.768154	1.059631	0.771601	536.173462
6134.769051	1.480851	0.771601	1864.496704
6134.769928	1.474581	0.771601	3157.704590
6134.770929	1.436199	0.771601	4595.339355
6134.771937	1.396058	0.771601	6002.566406
6134.772830	1.362231	0.771601	7219.039062
6134.773697	1.329324	0.771601	8371.562500
6134.774812	0.801039	0.771601	9264.720703
6134.775731	0.097727	0.771601	9354.532227
6134.776607	0.086986	0.771601	9430.732422
6134.777580	0.087246	0.771601	9515.623047
6134.778572	0.087195	0.771601	9602.120117
6134.779451	0.087144	0.771601	9678.719727
6134.780311	0.087100	0.771601	9753.625000
6134.781388	0.087187	0.771601	9847.526367
6134.782302	0.087147	0.771601	9927.178711
6134.783167	0.087217	0.771601	10002.621094
6134.784113	0.087052	0.771601	10084.972656
6135.817269	1.084255	0.755520	576.823914
6135.818308	1.485417	0.755520	2120.172607
6135.819195	1.468451	0.755520	3422.688477
6135.820129	1.431368	0.755520	4759.586426
6135.821217	1.389408	0.755520	6271.262207
6135.822141	1.354178	0.755520	7522.522949
6135.823013	1.322249	0.755520	8675.523437
6135.824068	0.593774	0.755520	9301.955078
6135.825093	0.088638	0.755520	9392.808594
6135.825985	0.087155	0.755520	9470.550781
6135.826953	0.087220	0.755520	9554.980469
6135.828020	0.087198	0.755520	9648.021484
6135.828935	0.087220	0.755520	9727.828125
6135.829798	0.087294	0.755520	9803.162109
6135.830888	0.087451	0.755520	9898.483398
6135.831882	0.087180	0.755520	9985.140625
6135.832773	0.087118	0.755520	10062.762695
6135.833752	0.087228	0.755520	10148.159180
6136.852454	1.007673	0.762686	466.552734
6136.853346	1.476859	0.762686	1783.911011
6136.854291	1.474175	0.762686	3177.006348
6136.855276	1.436550	0.762686	4592.008301
6136.856203	1.400079	0.762686	5889.881836
6136.857069	1.366289	0.762686	7073.088379
6136.858085	1.329675	0.762686	8424.038086
6136.859003	0.995475	0.762686	9337.883789
6136.859881	0.126398	0.762686	9448.861328
6136.860774	0.087067	0.762686	9526.612305
6136.861820	0.087048	0.762686	9617.665039
6136.862713	0.087147	0.762686	9695.487305
6136.863588	0.087177	0.762686	9771.766602
6136.864608	0.087264	0.762686	9860.776367
6136.865523	0.087275	0.762686	9940.633789
6136.866441	0.087294	0.762686	10020.769531
6136.867305	0.087173	0.762686	10096.086914
6136.868353	0.087103	0.762686	10187.371094
6137.901543	1.031070	0.745888	478.416687
6137.902420	1.476412	0.745888	1773.230469
6137.903413	1.473325	0.745888	3236.242187
6137.904470	1.432405	0.745888	4750.293945
6137.905380	1.395934	0.745888	6020.593750
6137.906245	1.362147	0.745888	7198.851074
6137.907318	1.324032	0.745888	8619.537109
6137.908318	0.717195	0.745888	9336.732422
6137.909185	0.095885	0.745888	9419.864258
6137.910176	0.087114	0.745888	9506.194336
6137.911215	0.087118	0.745888	9596.709961
6137.912112	0.087166	0.745888	9674.897461
6137.912979	0.087180	0.745888	9750.482422
6137.914079	0.087228	0.745888	9846.432617
6137.915046	0.087063	0.745888	9930.622070
6137.915930	0.087206	0.745888	10007.711914
6137.916929	0.087191	0.745888	10094.815430
6137.917982	0.087140	0.745888	10186.574219
6138.937379	1.073276	0.769595	554.883911
6138.938335	1.483634	0.769595	1973.238159
6138.939198	1.472618	0.769595	3244.107910
6138.940254	1.431786	0.769595	4756.073730
6138.941312	1.390613	0.769595	6227.341797
6138.942201	1.356621	0.769595	7433.377930
6138.943125	1.322966	0.769595	8655.798828
6138.944210	0.577782	0.769595	9282.692383
6138.945140	0.089751	0.769595	9366.161133
6138.946011	0.087129	0.769595	9442.050781
6138.947060	0.087301	0.769595	9533.629883
6138.948072	0.087162	0.769595	9621.837891
6138.948957	0.087166	0.769595	9698.979492
6138.949913	0.087290	0.769595	9782.428711
6138.950972	0.087235	0.769595	9874.810547
6138.951904	0.087151	0.769595	9956.035156
6138.952764	0.087268	0.769595	10031.085937
6138.953847	0.087374	0.769595	10125.711914
6139.985851	0.979241	0.738367	413.239594
6139.986794	1.472805	0.738367	1802.094849
6139.987850	1.470326	0.738367	3354.759033
6139.988746	1.434767	0.738367	4640.310059
6139.989627	1.399684	0.738367	5873.431641
6139.990578	1.364033	0.738367	7170.626953
6139.991585	1.327720	0.738367	8507.640625
6139.992468	0.970312	0.738367	9364.426758
6139.993328	0.124449	0.738367	9471.453125
6139.994440	0.087133	0.738367	9568.344727
6139.995311	0.087136	0.738367	9644.240234
6139.996184	0.087081	0.738367	9720.261719
6139.997203	0.087349	0.738367	9809.269531
6139.998174	0.087100	0.738367	9893.842773
6139.999100	0.087114	0.738367	9974.510742
6139.999963	0.087180	0.738367	10049.747070
6140.001076	0.087279	0.738367	10146.888672
6140.001974	0.086975	0.738367	10224.992187
6141.021188	1.050388	0.767444	515.740601
6141.022061	1.478518	0.767444	1806.486816
6141.023039	1.472314	0.767444	3246.410400
6141.024104	1.431006	0.767444	4770.431641
6141.025033	1.394242	0.767444	6065.682617
6141.025903	1.360576	0.767444	7249.383789
6141.026975	1.322435	0.767444	8667.034180
6141.027974	0.650951	0.767444	9317.333984
6141.028862	0.092853	0.767444	9399.787109
6141.029851	0.087213	0.767444	9486.041016
6141.030906	0.087107	0.767444	9577.938477
6141.031817	0.087023	0.767444	9657.215820
6141.032679	0.087063	0.767444	9732.263672
6141.033780	0.087162	0.767444	9828.228516
6141.034756	0.087045	0.767444	9913.184570
6141.035625	0.087085	0.767444	9988.861328
6141.036749	0.087191	0.767444	10086.864258
6141.037782	0.087184	0.767444	10176.924805
6142.070789	1.044309	0.733815	519.021606
6142.071685	1.480137	0.733815	1845.223999
6142.072548	1.473992	0.733815	3117.278809
6142.073653	1.432800	0.733815	4700.523437
6142.074628	1.394293	0.733815	6059.959473
6142.075499	1.361561	0.733815	7245.879395
6142.076517	1.325160	0.733815	8594.892578
6142.077575	0.689293	0.733815	9324.165039
6142.078455	0.093867	0.733815	9406.768555
6142.079334	0.087191	0.733815	9483.409180
6142.080414	0.087129	0.733815	9577.508789
6142.081365	0.087074	0.733815	9660.316406
6142.082221	0.087070	0.733815	9734.848633
6142.083288	0.087286	0.733815	9827.983398
6142.084341	0.087089	0.733815	9919.687500
6142.085209	0.087096	0.733815	9995.287109
6142.086140	0.087239	0.733815	10076.506836
6142.087209	0.087169	0.733815	10169.690430
6143.105978	0.978505	0.757993	412.928955
6143.106924	1.472461	0.757993	1805.876953
6143.107912	1.472274	0.757993	3260.483887
6143.108830	1.436700	0.757993	4579.375000
6143.109715	1.401383	0.757993	5819.599121
6143.110775	1.361982	0.757993	7263.300293
6143.111685	1.328357	0.757993	8472.105469
6143.112566	1.005644	0.757993	9358.078125
6143.113443	0.131719	0.757993	9473.595703
6143.114496	0.087048	0.757993	9565.257812
6143.115386	0.087122	0.757993	9642.795898
6143.116253	0.087184	0.757993	9718.384766
6143.117239	0.087220	0.757993	9804.383789
6143.118162	0.087052	0.757993	9884.732422
6143.119072	0.087158	0.757993	9964.046875
6143.119944	0.087290	0.757993	10040.164062
6143.120982	0.087063	0.757993	10130.535156
6143.121872	0.087180	0.757993	10208.125977
6144.155579	0.990399	0.720542	417.948425
6144.156670	1.482535	0.720542	2035.394531
6144.157680	1.466027	0.720542	3516.081543
6144.158572	1.430845	0.720542	4792.395020
6144.159581	1.392030	0.720542	6196.953125
6144.160626	1.352523	0.720542	7610.339844
6144.161522	1.319696	0.720542	8792.787109
6144.162387	0.695171	0.720542	9394.110352
6144.163475	0.090443	0.720542	9492.512695
6144.164443	0.087206	0.720542	9576.927734
6144.165309	0.087114	0.720542	9652.369141
6144.166308	0.087286	0.720542	9739.568359
6144.167358	0.087202	0.720542	9831.130859
6144.168251	0.087147	0.720542	9908.953125
6144.169129	0.087107	0.720542	9985.432617
6144.170221	0.087228	0.720542	10080.685547
6144.171185	0.087111	0.720542	10164.660156
6144.172052	0.087074	0.720542	10240.153320
6145.190878	1.025709	0.743777	467.723419
6145.191755	1.476303	0.743777	1762.440674
6145.192745	1.473351	0.743777	3221.058105
6145.193804	1.432394	0.743777	4737.962891
6145.194719	1.395795	0.743777	6015.115234
6145.195583	1.361909	0.743777	7191.804687
6145.196680	1.323296	0.743777	8643.459961
6145.197673	0.690798	0.743777	9329.422852
6145.198559	0.094567	0.743777	9413.208984
6145.199556	0.087136	0.743777	9500.083984
6145.200601	0.087147	0.743777	9591.152344
6145.201481	0.087136	0.743777	9667.832031
6145.202353	0.087169	0.743777	9743.843750
6145.203455	0.087187	0.743777	9839.924805
6145.204412	0.087081	0.743777	9923.261719
6145.205270	0.087056	0.743777	9997.955078
6145.206322	0.087297	0.743777	10089.791992
6145.207362	0.087136	0.743777	10180.414062
6146.239502	1.025035	0.731894	521.742981
6146.240556	1.484290	0.731894	2086.184082
6146.241436	1.469161	0.731894	3379.046143
6146.242298	1.434763	0.731894	4615.812012
6146.243339	1.393788	0.731894	6066.745117
6146.244299	1.357698	0.731894	7370.134766
6146.245179	1.325918	0.731894	8536.942383
6146.246094	0.851854	0.731894	9316.388672
6146.247188	0.094153	0.731894	9419.391602
6146.248085	0.087059	0.731894	9497.483398
6146.248948	0.087048	0.731894	9572.606445
6146.249977	0.087231	0.731894	9662.367187
6146.250942	0.087052	0.731894	9746.372070
6146.251822	0.087122	0.731894	9823.039062
6146.252681	0.087151	0.731894	9897.901367
6146.253804	0.087213	0.731894	9995.841797
6146.254688	0.087103	0.731894	10072.840820
6146.255550	0.087147	0.731894	10147.961914
6147.274691	0.990143	0.737022	424.771271
6147.275632	1.473245	0.737022	1811.094482
6147.276711	1.468488	0.737022	3395.592529
6147.277648	1.431907	0.737022	4737.289062
6147.278514	1.397113	0.737022	5947.188965
6147.279583	1.357460	0.737022	7398.313477
6147.280603	1.320604	0.737022	8745.330078
6147.281487	0.736143	0.737022	9396.080078
6147.282459	0.096940	0.737022	9490.305664
6147.283499	0.087114	0.737022	9580.904297
6147.284406	0.087111	0.737022	9659.914062
6147.285266	0.087118	0.737022	9734.835937
6147.286325	0.087220	0.737022	9827.202148
6147.287331	0.087133	0.737022	9914.857422
6147.288215	0.087107	0.737022	9991.860352
6147.289183	0.087224	0.737022	10076.292969
6147.290234	0.087250	0.737022	10167.992187
6147.291146	0.087019	0.737022	10247.353516
6148.324803	0.988444	0.710805	424.042297
6148.325803	1.475845	0.710805	1899.886963
6148.326862	1.467543	0.710805	3454.014648
6148.327760	1.431691	0.710805	4739.672852
6148.328623	1.396157	0.710805	5944.556641
6148.329727	1.355969	0.710805	7441.546875
6148.330704	1.321055	0.710805	8732.216797
6148.331576	0.764033	0.710805	9398.454102
6148.332605	0.095050	0.710805	9496.260742
6148.333643	0.087019	0.710805	9586.586914
6148.334526	0.087140	0.710805	9663.531250
6148.335412	0.087155	0.710805	9740.750000
6148.336516	0.087059	0.710805	9836.863281
6148.337455	0.087191	0.710805	9918.735352
6148.338318	0.087147	0.710805	9993.943359
6148.339339	0.087191	0.710805	10082.965820
6148.340375	0.087089	0.710805	10173.189453
6148.341263	0.087111	0.710805	10250.543945
6149.359047	1.003198	0.734730	441.407196
6149.360166	1.484205	0.734730	2102.232910
6149.361066	1.468660	0.734730	3424.026611
6149.361932	1.434247	0.734730	4666.084473
6149.363006	1.391821	0.734730	6160.900391
6149.363982	1.355552	0.734730	7483.918945
6149.364862	1.323501	0.734730	8648.599609
6149.365773	0.789210	0.734730	9367.570312
6149.366868	0.091985	0.734730	9468.293945
6149.367745	0.086968	0.734730	9544.564453
6149.368604	0.087085	0.734730	9619.370117
6149.369652	0.087257	0.734730	9710.815430
6149.370622	0.086968	0.734730	9795.173828
6149.371490	0.087114	0.734730	9870.789062
6149.372356	0.087089	0.734730	9946.208008
6149.373471	0.087100	0.734730	10043.324219
6149.374374	0.087085	0.734730	10121.961914
6149.375247	0.087074	0.734730	10197.977539
6150.409235	1.060800	0.701371	529.338989
6150.410257	1.484407	0.701371	2046.402588
6150.411149	1.469875	0.701371	3357.531494
6150.412111	1.432584	0.701371	4735.677734
6150.413167	1.390774	0.701371	6204.334961
6150.414102	1.355449	0.701371	7471.679687
6150.414968	1.323571	0.701371	8617.891602
6150.416061	0.607749	0.701371	9282.161133
6150.417053	0.088890	0.701371	9370.340820
6150.417948	0.087026	0.701371	9448.229492
6150.418937	0.087279	0.701371	9534.548828
6150.419989	0.087191	0.701371	9626.274414
6150.420880	0.087125	0.701371	9703.903320
6150.421739	0.087283	0.701371	9778.878906
6150.422843	0.087187	0.701371	9875.133789
6150.423795	0.087213	0.701371	9958.161133
6150.424665	0.087056	0.701371	10033.899414
6150.425690	0.087264	0.701371	10123.345703
6151.442967	1.063510	0.739483	536.008850
6151.443892	1.481997	0.739483	1906.856201
6151.444754	1.473523	0.739483	3177.032959
6151.445823	1.432734	0.739483	4708.625977
6151.446837	1.392722	0.739483	6120.846191
6151.447717	1.359371	0.739483	7317.092773
6151.448705	1.324797	0.739483	8625.992187
6151.449752	0.654313	0.739483	9311.057617
6151.450666	0.091787	0.739483	9394.951172
6151.451523	0.087030	0.739483	9469.536133
6151.452602	0.087268	0.739483	9563.698242
6151.453586	0.087023	0.739483	9649.328125
6151.454456	0.087180	0.739483	9725.174805
6151.455428	0.087173	0.739483	9809.907227
6151.456490	0.087019	0.739483	9902.321289
6151.457396	0.087136	0.739483	9981.266602
6151.458264	0.087158	0.739483	10056.919922
6151.459353	0.087092	0.739483	10151.763672
6152.493067	1.049985	0.696706	527.092590
6152.493970	1.480939	0.696706	1864.380371
6152.494835	1.473611	0.696706	3139.053711
6152.495938	1.432339	0.696706	4718.923340
6152.496937	1.392653	0.696706	6110.183105
6152.497831	1.359269	0.696706	7325.369141
6152.498847	1.322886	0.696706	8669.420898
6152.499901	0.625166	0.696706	9328.345703
6152.500781	0.091904	0.696706	9409.221680
6152.501672	0.087187	0.696706	9486.905273
6152.502759	0.087382	0.696706	9581.888672
6152.503706	0.087070	0.696706	9664.344727
6152.504564	0.087283	0.696706	9739.233398
6152.505610	0.087268	0.696706	9830.515625
6152.506650	0.087177	0.696706	9921.179687
6152.507524	0.087140	0.696706	9997.339844
6152.508455	0.087257	0.696706	10078.576172
6152.509520	0.087272	0.696706	10171.520508
6153.528868	1.076078	0.722862	557.408325
6153.529890	1.484897	0.722862	2074.973633
6153.530790	1.468704	0.722862	3396.806885
6153.531755	1.431628	0.722862	4778.328125
6153.532794	1.390067	0.722862	6222.607910
6153.533721	1.355361	0.722862	7479.027832
6153.534588	1.323556	0.722862	8626.550781
6153.535671	0.616370	0.722862	9294.079102
6153.536684	0.089282	0.722862	9384.522461
6153.537559	0.087180	0.722862	9460.804687
6153.538545	0.087085	0.722862	9546.670898
6153.539592	0.087257	0.722862	9638.029297
6153.540501	0.087074	0.722862	9717.179687
6153.541359	0.087202	0.722862	9791.999023
6153.542417	0.087169	0.722862	9884.223633
6153.543417	0.087089	0.722862	9971.312500
6153.544310	0.087155	0.722862	10049.141602
6153.545288	0.087268	0.722862	10134.490234
6154.576861	1.002894	0.690535	446.287964
6154.577733	1.474636	0.690535	1732.170776
6154.578597	1.477401	0.690535	3008.645508
6154.579652	1.438542	0.690535	4526.307617
6154.580530	1.402972	0.690535	5758.117187
6154.581402	1.369281	0.690535	6952.130371
6154.582289	1.335549	0.690535	8136.762695
6154.583342	1.068179	0.690535	9261.554687
6154.584242	0.143342	0.690535	9390.562500
6154.585117	0.087026	0.690535	9466.710937
6154.586116	0.087162	0.690535	9553.785156
6154.587053	0.087085	0.690535	9635.383789
6154.587980	0.087063	0.690535	9716.090820
6154.588841	0.087136	0.690535	9791.115234
6154.589886	0.087041	0.690535	9882.073242
6154.590762	0.087012	0.690535	9958.295898
6154.591628	0.086924	0.690535	10033.572266
6154.592606	0.087191	0.690535	10118.845703
6155.614684	1.010497	0.703458	462.807556
6155.615772	1.483063	0.703458	2076.379883
6155.616732	1.466671	0.703458	3484.384277
6155.617601	1.432181	0.703458	4728.949707
6155.618658	1.390858	0.703458	6199.086914
6155.619695	1.351996	0.703458	7601.106445
6155.620578	1.320081	0.703458	8766.737305
6155.621564	0.643759	0.703458	9401.483398
6155.622614	0.089084	0.703458	9495.022461
6155.623538	0.087085	0.703458	9575.489258
6155.624394	0.087195	0.703458	9650.127930
6155.625433	0.087290	0.703458	9740.822266
6155.626441	0.087198	0.703458	9828.718750
6155.627329	0.087122	0.703458	9906.083008
6155.628306	0.087213	0.703458	9991.290039
6155.629369	0.087195	0.703458	10083.978516
6155.630287	0.087125	0.703458	10163.959961
6155.631150	0.087250	0.703458	10239.256836
6156.659684	1.032012	0.718040	479.885468
6156.660557	1.476273	0.718040	1768.671997
6156.661536	1.473578	0.718040	3211.304687
6156.662591	1.432753	0.718040	4722.858887
6156.663506	1.396333	0.718040	6000.503418
6156.664367	1.362609	0.718040	7173.709473
6156.665430	1.324757	0.718040	8581.925781
6156.666433	0.732686	0.718040	9316.809570
6156.667322	0.096222	0.718040	9402.350586
6156.668302	0.087198	0.718040	9487.804687
6156.669357	0.087114	0.718040	9579.709961
6156.670257	0.087187	0.718040	9658.178711
6156.671119	0.087067	0.718040	9733.230469
6156.672229	0.087242	0.718040	9830.069336
6156.673199	0.087085	0.718040	9914.541992
6156.674066	0.086993	0.718040	9989.964844
6156.675147	0.087096	0.718040	10084.115234
6156.676173	0.087067	0.718040	10173.445312
6157.698500	0.998657	0.682523	430.421234
6157.699549	1.481733	0.682523	1984.759644
6157.700438	1.471329	0.682523	3292.771484
6157.701308	1.437411	0.682523	4543.318848
6157.702282	1.399541	0.682523	5906.471680
6157.703239	1.362568	0.682523	7210.449707
6157.704155	1.329511	0.682523	8428.281250
6157.705036	1.036886	0.682523	9341.777344
6157.706075	0.111105	0.682523	9457.214844
6157.706964	0.086825	0.682523	9534.402344
6157.707835	0.087158	0.682523	9610.317383
6157.708759	0.087122	0.682523	9690.817383
6157.709752	0.087067	0.682523	9777.274414
6157.710672	0.087037	0.682523	9857.348633
6157.711533	0.087030	0.682523	9932.281250
6157.712617	0.087078	0.682523	10026.673828
6157.713495	0.087107	0.682523	10103.153320
6157.714412	0.087118	0.682523	10183.040039
6158.745102	1.054911	0.701375	522.180908
6158.746119	1.484330	0.701375	2031.744385
6158.747016	1.469795	0.701375	3350.150391
6158.747989	1.432028	0.701375	4743.513184
6158.749047	1.390496	0.701375	6214.657715
6158.749966	1.355522	0.701375	7460.382812
6158.750832	1.323464	0.701375	8606.502930
6158.751914	0.624075	0.701375	9281.751953
6158.752911	0.089191	0.701375	9370.674805
6158.753803	0.087059	0.701375	9448.332031
6158.754802	0.087323	0.701375	9535.567383
6158.755850	0.087290	0.701375	9627.046875
6158.756741	0.087085	0.701375	9704.639648
6158.757599	0.087209	0.701375	9779.465820
6158.758701	0.087125	0.701375	9875.477539
6158.759673	0.087107	0.701375	9960.145508
6158.760537	0.087041	0.701375	10035.348633
6158.761618	0.087330	0.701375	10129.752930
6159.781921	1.080487	0.683284	567.255737
6159.782892	1.484257	0.683284	2008.468750
6159.783762	1.471311	0.683284	3288.509277
6159.784850	1.429091	0.683284	4843.359863
6159.785891	1.388328	0.683284	6288.608887
6159.786787	1.354420	0.683284	7502.169434
6159.787730	1.320985	0.683284	8747.858398
6159.788811	0.509568	0.683284	9298.701172
6159.789738	0.088579	0.683284	9380.814453
6159.790599	0.087074	0.683284	9455.785156
6159.791671	0.087078	0.683284	9549.132812
6159.792688	0.086960	0.683284	9637.571289
6159.793565	0.087107	0.683284	9713.963867
6159.794533	0.087166	0.683284	9798.339844
6159.795569	0.087202	0.683284	9888.681641
6159.796484	0.087063	0.683284	9968.344727
6159.797348	0.087151	0.683284	10043.643555
6159.798398	0.087228	0.683284	10135.232422
6160.829391	1.012756	0.702350	442.574524
6160.830272	1.475365	0.702350	1742.371094
6160.831152	1.477086	0.702350	3042.207031
6160.832164	1.438846	0.702350	4498.319824
6160.833101	1.400925	0.702350	5810.986816
6160.834024	1.366252	0.702350	7072.038086
6160.834890	1.333605	0.702350	8226.939453
6160.835932	1.025431	0.702350	9295.438477
6160.836818	0.134260	0.702350	9414.392578
6160.837690	0.086840	0.702350	9490.117187
6160.838688	0.086953	0.702350	9576.896484
6160.839632	0.086938	0.702350	9658.966797
6160.840534	0.087030	0.702350	9737.467773
6160.841413	0.087133	0.702350	9814.057617
6160.842434	0.087012	0.702350	9902.896484
6160.843326	0.087059	0.702350	9980.553711
6160.844198	0.087155	0.702350	10056.552734
6160.845123	0.087239	0.702350	10137.249023
6161.867192	0.991999	0.683800	418.623779
6161.868272	1.481964	0.683800	2019.145020
6161.869261	1.466327	0.683800	3469.342285
6161.870154	1.431691	0.683800	4747.841797
6161.871160	1.392371	0.683800	6148.566406
6161.872229	1.352281	0.683800	7594.155273
6161.873129	1.319788	0.683800	8781.963867
6161.874015	0.689015	0.683800	9392.430664
6161.875116	0.089590	0.683800	9491.069336
6161.876068	0.086997	0.683800	9573.890625
6161.876933	0.087037	0.683800	9649.177734
6161.877961	0.087166	0.683800	9738.784180
6161.878998	0.087129	0.683800	9829.136719
6161.879889	0.087118	0.683800	9906.758789
6161.880794	0.087122	0.683800	9985.603516
6161.881877	0.086986	0.683800	10079.809570
6161.882815	0.087140	0.683800	10161.546875
6161.883674	0.087026	0.683800	10236.302734
6162.912719	1.002909	0.691409	439.274109
6162.913583	1.473647	0.691409	1712.505615
6162.914638	1.471454	0.691409	3264.889404
6162.915668	1.431837	0.691409	4739.681641
6162.916551	1.396626	0.691409	5972.902344
6162.917530	1.360532	0.691409	7304.863281
6162.918583	1.322190	0.691409	8697.128906
6162.919514	0.718521	0.691409	9366.071289
6162.920377	0.096566	0.691409	9449.408203
6162.921455	0.087089	0.691409	9543.290039
6162.922447	0.086982	0.691409	9629.576172
6162.923317	0.086957	0.691409	9705.228516
6162.924296	0.087198	0.691409	9790.595703
6162.925358	0.087092	0.691409	9883.087891
6162.926264	0.086946	0.691409	9961.860352
6162.927131	0.087107	0.691409	10037.381836
6162.928234	0.087177	0.691409	10133.537109
6162.929209	0.087081	0.691409	10218.441406
6163.951115	1.027504	0.676343	519.916809
6163.952167	1.484788	0.676343	2081.913330
6163.953063	1.468140	0.676343	3397.366455
6163.953935	1.433437	0.676343	4647.324219
6163.954997	1.392048	0.676343	6125.679687
6163.955955	1.356313	0.676343	7425.027832
6163.956832	1.324351	0.676343	8586.483398
6163.957764	0.814248	0.676343	9345.362305
6163.958810	0.093545	0.676343	9443.209961
6163.959691	0.087096	0.676343	9519.941406
6163.960554	0.087133	0.676343	9595.136719
6163.961604	0.087151	0.676343	9686.645508
6163.962557	0.086913	0.676343	9769.473633
6163.963435	0.087045	0.676343	9845.898437
6163.964318	0.087231	0.676343	9922.923828
6163.965402	0.087019	0.676343	10017.252930
6163.966294	0.087056	0.676343	10094.906250
6163.967159	0.086946	0.676343	10170.114258
6164.996037	0.997994	0.689508	435.125549
6164.996900	1.473113	0.689508	1706.421875
6164.997993	1.470403	0.689508	3313.572266
6164.998995	1.430940	0.689508	4747.374023
6164.999891	1.396296	0.689508	5998.455566
6165.000889	1.358661	0.689508	7354.399414
6165.001948	1.320817	0.689508	8753.144531
6165.002843	0.709702	0.689508	9388.328125
6165.003703	0.096248	0.689508	9471.100586
6165.004810	0.087213	0.689508	9567.645508
6165.005767	0.087048	0.689508	9650.951172
6165.006630	0.087045	0.689508	9726.070312
6165.007659	0.087056	0.689508	9815.650391
6165.008699	0.087268	0.689508	9906.409180
6165.009579	0.087085	0.689508	9983.043945
6165.010511	0.087184	0.689508	10064.298828
6165.011572	0.087059	0.689508	10156.668945
6165.012511	0.087063	0.689508	10238.420898
6166.036428	1.003491	0.660391	441.536163
6166.037296	1.473962	0.660391	1720.935547
6166.038302	1.473190	0.660391	3202.964355
6166.039226	1.436928	0.660391	4530.685547
6166.040139	1.401248	0.660391	5810.024414
6166.041017	1.367260	0.660391	7010.478516
6166.042058	1.329752	0.660391	8394.750977
6166.042955	1.043632	0.660391	9330.888672
6166.043826	0.140577	0.660391	9453.332031
6166.044801	0.087052	0.660391	9538.208008
6166.045760	0.087074	0.660391	9621.711914
6166.046681	0.087001	0.660391	9701.839844
6166.047548	0.087045	0.660391	9777.307617
6166.048584	0.087026	0.660391	9867.466797
6166.049457	0.087089	0.660391	9943.495117
6166.050319	0.087063	0.660391	10018.542969
6166.051239	0.087191	0.660391	10098.758789
6166.052220	0.087070	0.660391	10184.174805
6167.079866	0.987477	0.693069	420.665100
6167.080933	1.481239	0.693069	2001.147217
6167.081956	1.466019	0.693069	3500.884766
6167.082854	1.430669	0.693069	4785.625488
6167.083827	1.392718	0.693069	6140.740234
6167.084883	1.352871	0.693069	7569.372070
6167.085806	1.319590	0.693069	8787.353516
6167.086676	0.698357	0.693069	9394.923828
6167.087763	0.090201	0.693069	9492.972656
6167.088746	0.087008	0.693069	9578.501953
6167.089633	0.086979	0.693069	9655.652344
6167.090622	0.087166	0.693069	9741.859375
6167.091669	0.087195	0.693069	9833.152344
6167.092562	0.087092	0.693069	9910.925781
6167.093421	0.087198	0.693069	9985.829102
6167.094519	0.087231	0.693069	10081.609375
6167.095476	0.087228	0.693069	10165.085937
6167.096341	0.087026	0.693069	10240.363281
6168.121845	1.049121	0.639428	505.676331
6168.122733	1.478514	0.639428	1818.596924
6168.123701	1.472366	0.639428	3243.846924
6168.124770	1.431306	0.639428	4773.913086
6168.125682	1.394832	0.639428	6045.999512
6168.126547	1.361056	0.639428	7223.312988
6168.127642	1.322684	0.639428	8671.652344
6168.128643	0.679226	0.639428	9351.557617
6168.129514	0.094486	0.639428	9433.855469
6168.130512	0.087140	0.639428	9520.821289
6168.131561	0.087092	0.639428	9612.180664
6168.132447	0.087001	0.639428	9689.263672
6168.133306	0.087166	0.639428	9764.138672
6168.134391	0.087231	0.639428	9858.785156
6168.135363	0.087030	0.639428	9943.377930
6168.136246	0.087103	0.639428	10020.290039
6168.137247	0.087100	0.639428	10107.476562
6168.138309	0.087052	0.639428	10199.925781
6169.164286	1.022230	0.677781	502.937225
6169.165272	1.483766	0.677781	1965.930420
6169.166193	1.469898	0.677781	3319.706055
6169.167092	1.434741	0.677781	4609.538574
6169.168114	1.395429	0.677781	6035.666504
6169.169034	1.359554	0.677781	7286.456543
6169.169959	1.326504	0.677781	8513.472656
6169.170830	0.917318	0.677781	9312.457031
6169.171886	0.097720	0.677781	9415.649414
6169.172782	0.086997	0.677781	9493.598633
6169.173652	0.087037	0.677781	9569.321289
6169.174646	0.087195	0.677781	9655.993164
6169.175568	0.087059	0.677781	9736.261719
6169.176485	0.087209	0.677781	9816.232422
6169.177343	0.087228	0.677781	9891.074219
6169.178380	0.087103	0.677781	9981.400391
6169.179274	0.087001	0.677781	10059.178711
6169.180150	0.087004	0.677781	10135.394531
6170.206137	0.985020	0.638928	416.663239
6170.207159	1.479342	0.638928	1928.550659
6170.208205	1.466858	0.638928	3462.884033
6170.209100	1.431420	0.638928	4744.004883
6170.210054	1.394147	0.638928	6074.020996
6170.211116	1.354080	0.638928	7512.053711
6170.212053	1.320483	0.638928	8749.346680
6170.212932	0.728752	0.638928	9389.919922
6170.214019	0.090366	0.638928	9488.148437
6170.215015	0.087034	0.638928	9574.833984
6170.215901	0.087103	0.638928	9652.007812
6170.216870	0.087235	0.638928	9736.539062
6170.217907	0.087140	0.638928	9826.903320
6170.218820	0.087070	0.638928	9906.398437
6170.219681	0.086949	0.638928	9981.261719
6170.220771	0.087191	0.638928	10076.299805
6170.221763	0.087001	0.638928	10162.604492
6170.222636	0.087037	0.638928	10238.587891
6171.247653	1.068860	0.688368	549.393921
6171.248581	1.482074	0.688368	1924.758545
6171.249447	1.472889	0.688368	3200.280762
6171.250515	1.431863	0.688368	4729.510254
6171.251543	1.391539	0.688368	6160.012695
6171.252421	1.358126	0.688368	7352.447266
6171.253407	1.323351	0.688368	8657.271484
6171.254455	0.620072	0.688368	9307.107422
6171.255369	0.090992	0.688368	9390.274414
6171.256227	0.087125	0.688368	9465.028320
6171.257286	0.087129	0.688368	9557.297852
6171.258286	0.087063	0.688368	9644.361328
6171.259177	0.087206	0.688368	9722.061523
6171.260151	0.087111	0.688368	9806.907227
6171.261201	0.087111	0.688368	9898.373047
6171.262104	0.087052	0.688368	9976.981445
6171.262964	0.087103	0.688368	10051.890625
6171.264053	0.087166	0.688368	10146.813477
6172.289975	0.979457	0.648657	411.371857
6172.290952	1.474559	0.648657	1852.016235
6172.291897	1.471835	0.648657	3242.900146
6172.292823	1.436342	0.648657	4572.952148
6172.293691	1.401291	0.648657	5789.273437
6172.294734	1.362268	0.648657	7210.119141
6172.295622	1.329954	0.648657	8391.118164
6172.296497	1.074873	0.648657	9331.631836
6172.297498	0.145419	0.648657	9477.196289
6172.298448	0.086854	0.648657	9559.708008
6172.299347	0.087114	0.648657	9638.023437
6172.300223	0.087067	0.648657	9714.293945
6172.301245	0.087056	0.648657	9803.264648
6172.302155	0.086968	0.648657	9882.405273
6172.303031	0.087096	0.648657	9958.701172
6172.303918	0.087067	0.648657	10035.929687
6172.304933	0.087070	0.648657	10124.305664
6172.305869	0.086964	0.648657	10205.704102
6173.331414	1.016796	0.677507	459.591614
6173.332290	1.475175	0.677507	1751.844482
6173.333295	1.472509	0.677507	3231.715576
6173.334349	1.432181	0.677507	4741.234863
6173.335248	1.395886	0.677507	5996.136719
6173.336116	1.361722	0.677507	7178.111816
6173.337213	1.322944	0.677507	8629.381836
6173.338197	0.723812	0.677507	9341.613281
6173.339061	0.096365	0.677507	9424.872070
6173.340140	0.087253	0.677507	9519.018555
6173.341186	0.087125	0.677507	9610.151367
6173.342076	0.087125	0.677507	9687.692383
6173.342983	0.087338	0.677507	9766.907227
6173.344057	0.087173	0.677507	9860.531250
6173.345008	0.087052	0.677507	9943.317383
6173.345874	0.087169	0.677507	10018.805664
6173.346935	0.087253	0.677507	10111.381836
6173.347948	0.087224	0.677507	10199.740234
6174.374857	0.987565	0.622178	427.615479
6174.375736	1.474318	0.622178	1723.540649
6174.376602	1.477621	0.622178	3003.160156
6174.377665	1.438345	0.622178	4532.120605
6174.378549	1.402628	0.622178	5772.043945
6174.379420	1.369197	0.622178	6964.614258
6174.380300	1.335432	0.622178	8139.794434
6174.381350	1.059840	0.622178	9252.626953
6174.382248	0.144972	0.622178	9382.811523
6174.383122	0.086884	0.622178	9458.748047
6174.384123	0.087202	0.622178	9546.037109
6174.385057	0.087089	0.622178	9627.377930
6174.385980	0.087122	0.622178	9707.791016
6174.386843	0.087198	0.622178	9783.042969
6174.387888	0.087092	0.622178	9874.054687
6174.388778	0.087023	0.622178	9951.504883
6174.389653	0.087034	0.622178	10027.659180
6174.390637	0.087198	0.622178	10113.462891
6175.415226	0.978300	0.681447	411.864136
6175.416162	1.472413	0.681447	1790.042969
6175.417223	1.469246	0.681447	3348.912598
6175.418160	1.432577	0.681447	4691.237305
6175.419031	1.397750	0.681447	5908.677734
6175.420080	1.358485	0.681447	7333.728516
6175.421109	1.321381	0.681447	8693.429687
6175.422004	0.768267	0.681447	9381.028320
6175.422953	0.098708	0.681447	9474.703125
6175.423996	0.087155	0.681447	9565.605469
6175.424919	0.087133	0.681447	9646.029297
6175.425783	0.087140	0.681447	9721.318359
6175.426863	0.087129	0.681447	9815.417969
6175.427856	0.087191	0.681447	9901.999023
6175.428743	0.087085	0.681447	9979.243164
6175.429734	0.087330	0.681447	10065.787109
6175.430784	0.087023	0.681447	10157.161133
6175.431678	0.087111	0.681447	10235.038086
6176.458688	0.989872	0.624418	426.634735
6176.459706	1.476907	0.624418	1930.125854
6176.460762	1.466968	0.624418	3479.243652
6176.461661	1.430801	0.624418	4765.533203
6176.462535	1.394908	0.624418	5984.683105
6176.463636	1.354926	0.624418	7476.456055
6176.464597	1.320703	0.624418	8745.651367
6176.465468	0.754182	0.624418	9402.543945
6176.466507	0.093424	0.624418	9499.611328
6176.467543	0.087026	0.624418	9589.770508
6176.468425	0.087184	0.624418	9666.666992
6176.469355	0.087111	0.624418	9747.679687
6176.470424	0.087312	0.624418	9841.016602
6176.471370	0.087070	0.624418	9923.384766
6176.472226	0.087257	0.624418	9998.077148
6176.473259	0.087147	0.624418	10088.100586
6176.474282	0.087078	0.624418	10177.180664
6176.475170	0.087140	0.624418	10254.560547
6177.498567	0.997570	0.664480	433.942749
6177.499428	1.472684	0.664480	1701.923950
6177.500540	1.469828	0.664480	3336.372559
6177.501449	1.434265	0.664480	4640.119629
6177.502321	1.399720	0.664480	5860.675781
6177.503335	1.362023	0.664480	7241.766602
6177.504340	1.325002	0.664480	8573.394531
6177.505223	0.903021	0.664480	9370.762695
6177.506083	0.113104	0.664480	9468.032227
6177.507166	0.086982	0.664480	9562.234375
6177.508073	0.086979	0.664480	9641.124023
6177.508958	0.087147	0.664480	9718.249023
6177.509936	0.087158	0.664480	9803.490234
6177.510944	0.087041	0.664480	9891.227539
6177.511828	0.086916	0.664480	9968.061523
6177.512692	0.087158	0.664480	10043.366211
6177.513775	0.087155	0.664480	10137.754883
6177.514707	0.087085	0.664480	10218.917969
6178.542612	1.036315	0.622448	531.629395
6178.543674	1.484454	0.622448	2108.119873
6178.544606	1.466096	0.622448	3474.521484
6178.545474	1.430947	0.622448	4716.583496
6178.546548	1.389866	0.622448	6209.299316
6178.547552	1.352062	0.622448	7566.769531
6178.548441	1.320172	0.622448	8740.402344
6178.549440	0.606643	0.622448	9346.438477
6178.550494	0.088956	0.622448	9440.198242
6178.551388	0.086935	0.622448	9517.917969
6178.552244	0.087122	0.622448	9592.494141
6178.553339	0.087184	0.622448	9687.959961
6178.554331	0.087136	0.622448	9774.399414
6178.555206	0.087081	0.622448	9850.595703
6178.556180	0.087096	0.622448	9935.426758
6178.557251	0.087026	0.622448	10028.631836
6178.558139	0.086975	0.622448	10105.865234
6178.559017	0.087155	0.622448	10182.386719
6179.582404	0.992765	0.661128	430.859955
6179.583269	1.472611	0.661128	1704.668579
6179.584290	1.473369	0.661128	3208.978516
6179.585199	1.437821	0.661128	4515.958008
6179.586080	1.402375	0.661128	5751.450684
6179.586951	1.367765	0.661128	6942.773926
6179.587955	1.332539	0.661128	8280.643555
6179.588877	1.106334	0.661128	9300.683594
6179.589758	0.158679	0.661128	9440.479492
6179.590790	0.086862	0.661128	9530.121094
6179.591694	0.087147	0.661128	9608.902344
6179.592612	0.087045	0.661128	9688.809570
6179.593476	0.087008	0.661128	9763.984375
6179.594482	0.086975	0.661128	9851.481445
6179.595407	0.087026	0.661128	9931.980469
6179.596271	0.087125	0.661128	10007.256836
6179.597292	0.087078	0.661128	10096.163086
6179.598171	0.087107	0.661128	10172.730469
6180.627899	0.981768	0.603954	415.287689
6180.628768	1.472512	0.603954	1694.900757
6180.629885	1.469293	0.603954	3336.101318
6180.630842	1.432302	0.603954	4706.814453
6180.631717	1.397714	0.603954	5929.813965
6180.632762	1.358536	0.603954	7349.484375
6180.633810	1.320820	0.603954	8733.704102
6180.634713	0.714580	0.603954	9378.969727
6180.635640	0.096310	0.603954	9468.249023
6180.636696	0.087114	0.603954	9560.241211
6180.637638	0.087162	0.603954	9642.347656
6180.638501	0.087041	0.603954	9717.463867
6180.639567	0.087341	0.603954	9810.569336
6180.640583	0.087092	0.603954	9899.054687
6180.641459	0.087063	0.603954	9975.322266
6180.642442	0.087272	0.603954	10061.110352
6180.643480	0.087195	0.603954	10151.618164
6180.644403	0.087092	0.603954	10232.003906
6181.666827	1.048660	0.659223	527.475830
6181.667722	1.480023	0.659223	1852.096680
6181.668586	1.473321	0.659223	3125.046387
6181.669701	1.431654	0.659223	4721.340820
6181.670671	1.393392	0.659223	6072.931641
6181.671549	1.360353	0.659223	7267.321289
6181.672580	1.323750	0.659223	8632.107422
6181.673624	0.652855	0.659223	9313.688477
6181.674503	0.092552	0.659223	9395.041992
6181.675382	0.087147	0.659223	9471.644531
6181.676475	0.087144	0.659223	9566.892578
6181.677431	0.087026	0.659223	9650.089844
6181.678292	0.086971	0.659223	9724.972656
6181.679325	0.087122	0.659223	9814.969727
6181.680351	0.087045	0.659223	9904.277344
6181.681224	0.087074	0.659223	9980.292969
6181.682152	0.087122	0.659223	10061.141602
6181.683228	0.087177	0.659223	10154.943359
6182.711277	1.009164	0.606053	478.343658
6182.712153	1.477222	0.606053	1772.389893
6182.713101	1.473193	0.606053	3168.977295
6182.714071	1.436074	0.606053	4561.969238
6182.714982	1.400204	0.606053	5837.554687
6182.715861	1.366615	0.606053	7038.809082
6182.716903	1.329141	0.606053	8423.773437
6182.717809	1.007585	0.606053	9336.645508
6182.718687	0.127947	0.606053	9448.982422
6182.719597	0.086902	0.606053	9528.063477
6182.720596	0.087063	0.606053	9615.039062
6182.721523	0.087085	0.606053	9695.766602
6182.722389	0.087030	0.606053	9771.134766
6182.723416	0.087092	0.606053	9860.578125
6182.724309	0.087023	0.606053	9938.289062
6182.725208	0.086924	0.606053	10016.433594
6182.726086	0.087133	0.606053	10092.935547
6182.727133	0.087074	0.606053	10184.101562
6183.751098	0.980577	0.645116	414.784210
6183.752063	1.472900	0.645116	1836.133057
6183.753129	1.467982	0.645116	3401.001953
6183.754068	1.431123	0.645116	4744.826172
6183.754936	1.396271	0.645116	5956.789062
6183.755988	1.356892	0.645116	7384.239258
6183.757011	1.320300	0.645116	8734.906250
6183.757901	0.730115	0.645116	9384.708008
6183.758889	0.095530	0.645116	9479.091797
6183.759942	0.087155	0.645116	9570.865234
6183.760846	0.087004	0.645116	9649.517578
6183.761708	0.087059	0.645116	9724.562500
6183.762793	0.087202	0.645116	9819.176758
6183.763775	0.087107	0.645116	9904.715820
6183.764663	0.087147	0.645116	9982.102539
6183.765660	0.087074	0.645116	10068.915039
6183.766689	0.087096	0.645116	10158.537109
6183.767578	0.087184	0.645116	10236.043945
6184.797629	0.983240	0.581573	417.876892
6184.798574	1.473036	0.581573	1809.895752
6184.799640	1.468784	0.581573	3375.619629
6184.800568	1.432485	0.581573	4704.965820
6184.801429	1.398142	0.581573	5908.766113
6184.802500	1.358342	0.581573	7363.550781
6184.803519	1.321512	0.581573	8710.171875
6184.804401	0.770684	0.581573	9389.915039
6184.805375	0.098950	0.581573	9486.292969
6184.806432	0.087096	0.581573	9578.353516
6184.807338	0.087026	0.581573	9657.199219
6184.808194	0.087231	0.581573	9731.869141
6184.809249	0.087184	0.581573	9823.847656
6184.810251	0.087085	0.581573	9911.106445
6184.811140	0.087202	0.581573	9988.628906
6184.812116	0.087206	0.581573	10073.742187
6184.813162	0.087158	0.581573	10164.910156
6184.814073	0.087286	0.581573	10244.427734
6185.835517	1.019542	0.648902	500.595215
6185.836578	1.483568	0.648902	2074.660889
6185.837462	1.468825	0.648902	3373.101807
6185.838328	1.434573	0.648902	4615.441895
6185.839382	1.393630	0.648902	6084.328125
6185.840357	1.356837	0.648902	7407.244141
6185.841227	1.324794	0.648902	8559.814453
6185.842130	0.843072	0.648902	9321.109375
6185.843222	0.094175	0.648902	9423.948242
6185.844115	0.086960	0.648902	9501.603516
6185.844983	0.087169	0.648902	9577.266602
6185.845993	0.087195	0.648902	9665.333008
6185.846972	0.087041	0.648902	9750.545898
6185.847847	0.086986	0.648902	9826.659180
6185.848715	0.087111	0.648902	9902.271484
6185.849819	0.087166	0.648902	9998.501953
6185.850706	0.087158	0.648902	10075.811523
6185.851565	0.087074	0.648902	10150.608398
6186.880469	1.012797	0.585682	449.681702
6186.881336	1.474442	0.585682	1728.022949
6186.882427	1.469996	0.585682	3331.789062
6186.883415	1.430940	0.585682	4745.557617
6186.884298	1.396362	0.585682	5978.545410
6186.885315	1.358859	0.585682	7360.504883
6186.886363	1.320897	0.585682	8744.804687
6186.887250	0.720150	0.585682	9383.578125
6186.888114	0.096577	0.585682	9467.020508
6186.889210	0.087191	0.585682	9562.582031
6186.890191	0.087045	0.585682	9647.972656
6186.891058	0.087059	0.585682	9723.453125
6186.892098	0.087206	0.585682	9814.147461
6186.893141	0.087092	0.585682	9904.984375
6186.894030	0.087056	0.585682	9982.376953
6186.894944	0.087140	0.585682	10062.022461
6186.896022	0.087264	0.585682	10156.093750
6186.896970	0.087166	0.585682	10238.726562
6187.919846	1.028547	0.646743	479.303101
6187.920719	1.476522	0.646743	1768.307007
6187.921684	1.473376	0.646743	3190.115234
6187.922759	1.431815	0.646743	4729.316406
6187.923692	1.394916	0.646743	6030.772949
6187.924556	1.361481	0.646743	7207.092285
6187.925631	1.323475	0.646743	8629.828125
6187.926626	0.699027	0.646743	9325.360352
6187.927511	0.094977	0.646743	9409.415039
6187.928505	0.087158	0.646743	9496.050781
6187.929551	0.087114	0.646743	9587.171875
6187.930452	0.087023	0.646743	9665.579102
6187.931310	0.087140	0.646743	9740.344727
6187.932403	0.087220	0.646743	9835.676758
6187.933395	0.086990	0.646743	9921.970703
6187.934275	0.087012	0.646743	9998.541016
6187.935263	0.087187	0.646743	10084.682617
6187.936331	0.087133	0.646743	10177.740234
6188.963768	0.977139	0.582902	408.443970
6188.964651	1.471978	0.582902	1708.200195
6188.965766	1.469363	0.582902	3346.539551
6188.966726	1.432152	0.582902	4721.405762
6188.967594	1.397549	0.582902	5934.478027
6188.968649	1.357928	0.582902	7367.092773
6188.969672	1.321176	0.582902	8718.655273
6188.970566	0.744419	0.582902	9384.166016
6188.971526	0.097471	0.582902	9477.738281
6188.972579	0.087103	0.582902	9569.458008
6188.973504	0.087184	0.582902	9650.103516
6188.974364	0.087162	0.582902	9725.062500
6188.975417	0.087162	0.582902	9816.843750
6188.976446	0.087045	0.582902	9906.413086
6188.977321	0.087268	0.582902	9982.772461
6188.978282	0.087133	0.582902	10066.506836
6188.979360	0.087283	0.582902	10160.597656
6188.980262	0.087166	0.582902	10239.220703
6190.003659	0.988729	0.643931	423.176117
6190.004523	1.472472	0.643931	1695.391968
6190.005641	1.469465	0.643931	3338.254150
6190.006597	1.432192	0.643931	4707.430176
6190.007460	1.397834	0.643931	5913.761230
6190.008517	1.358573	0.643931	7349.772949
6190.009555	1.321113	0.643931	8721.088867
6190.010442	0.750264	0.643931	9386.572266
6190.011392	0.098075	0.643931	9479.743164
6190.012448	0.087067	0.643931	9571.685547
6190.013384	0.086960	0.643931	9653.080078
6190.014241	0.086993	0.643931	9727.633789
6190.015290	0.087323	0.643931	9819.235352
6190.016326	0.087122	0.643931	9909.493164
6190.017196	0.086949	0.643931	9985.139648
6190.018142	0.087235	0.643931	10067.664062
6190.019193	0.087180	0.643931	10159.290039
6190.020116	0.087107	0.643931	10239.689453
6191.048656	1.012555	0.557890	453.624573
6191.049708	1.483843	0.557890	2014.627197
6191.050596	1.470282	0.557890	3320.237549
6191.051467	1.436499	0.557890	4571.428223
6191.052493	1.396776	0.557890	6004.520508
6191.053414	1.361060	0.557890	7258.056641
6191.054319	1.328075	0.557890	8459.964844
6191.055205	0.971748	0.557890	9320.933594
6191.056248	0.103455	0.557890	9428.836914
6191.057132	0.086927	0.557890	9505.680664
6191.057992	0.087063	0.557890	9580.554687
6191.059072	0.087151	0.557890	9674.677734
6191.060007	0.086975	0.557890	9755.999023
6191.060923	0.087100	0.557890	9835.782227
6191.061788	0.087129	0.557890	9911.148437
6191.062820	0.087067	0.557890	10001.000977
6191.063702	0.086938	0.557890	10077.680664
6191.064571	0.087045	0.557890	10153.322266
6192.088097	1.076309	0.629969	569.367249
6192.089172	1.484875	0.629969	2165.608398
6192.090078	1.465759	0.629969	3493.586426
6192.090951	1.429676	0.629969	4741.693848
6192.092074	1.387354	0.629969	6299.691895
6192.093034	1.351637	0.629969	7597.263672
6192.093909	1.320300	0.629969	8752.526367
6192.094941	0.557739	0.629969	9328.113281
6192.095977	0.088279	0.629969	9419.570312
6192.096866	0.087122	0.629969	9497.021484
6192.097761	0.087122	0.629969	9574.995117
6192.098847	0.087253	0.629969	9669.751953
6192.099801	0.087078	0.629969	9752.824219
6192.100662	0.087081	0.629969	9827.800781
6192.101710	0.087316	0.629969	9919.307617
6192.102722	0.087045	0.629969	10007.396484
6192.103598	0.087166	0.629969	10083.753906
6192.104549	0.087151	0.629969	10166.634766
6193.131962	0.988162	0.572916	419.968658
6193.132922	1.478716	0.572916	1839.535767
6193.133847	1.473160	0.572916	3202.208984
6193.134749	1.438455	0.572916	4499.695312
6193.135638	1.402478	0.572916	5746.498047
6193.136618	1.365692	0.572916	7084.876465
6193.137551	1.331865	0.572916	8327.506836
6193.138415	1.091265	0.572916	9270.359375
6193.139460	0.125420	0.572916	9401.422852
6193.140331	0.086964	0.572916	9477.168945
6193.141244	0.087056	0.572916	9556.650391
6193.142121	0.087111	0.572916	9633.045898
6193.143113	0.087059	0.572916	9719.409180
6193.144032	0.087041	0.572916	9799.399414
6193.144904	0.087114	0.572916	9875.363281
6193.145918	0.087147	0.572916	9963.730469
6193.146810	0.087052	0.572916	10041.380859
6193.147731	0.087067	0.572916	10121.569336
6194.172871	0.991479	0.604558	427.327637
6194.173742	1.473450	0.604558	1710.702393
6194.174789	1.471322	0.604558	3251.176758
6194.175828	1.431449	0.604558	4738.452148
6194.176727	1.395531	0.604558	5993.034668
6194.177672	1.360331	0.604558	7278.547363
6194.178733	1.321809	0.604558	8680.986328
6194.179665	0.722432	0.604558	9354.292969
6194.180525	0.096863	0.604558	9437.594727
6194.181586	0.087144	0.604558	9530.053711
6194.182606	0.087001	0.604558	9618.794922
6194.183480	0.087118	0.604558	9694.935547
6194.184459	0.087209	0.604558	9780.313477
6194.185508	0.087063	0.604558	9871.642578
6194.186418	0.087133	0.604558	9950.933594
6194.187275	0.087118	0.604558	10025.593750
6194.188340	0.087195	0.604558	10118.456055
6194.189340	0.087129	0.604558	10205.584961
6195.215833	1.019901	0.574850	464.055023
6195.216713	1.476068	0.574850	1762.994873
6195.217693	1.473497	0.574850	3207.022217
6195.218753	1.432192	0.574850	4725.145996
6195.219670	1.395707	0.574850	6005.009277
6195.220533	1.362015	0.574850	7180.428711
6195.221623	1.323735	0.574850	8623.300781
6195.222624	0.697555	0.574850	9321.553711
6195.223503	0.094995	0.574850	9405.054687
6195.224510	0.087070	0.574850	9492.734375
6195.225562	0.087140	0.574850	9584.405273
6195.226441	0.087111	0.574850	9660.975586
6195.227298	0.087008	0.574850	9735.541016
6195.228428	0.087209	0.574850	9834.087891
6195.229390	0.087041	0.574850	9917.821289
6195.230255	0.087085	0.574850	9993.149414
6195.231279	0.087114	0.574850	10082.354492
6195.232321	0.087147	0.574850	10173.162109
6196.257730	0.985488	0.599060	417.847015
6196.258662	1.472629	0.599060	1790.337646
6196.259592	1.473398	0.599060	3160.598145
6196.260519	1.438451	0.599060	4494.041992
6196.261384	1.402635	0.599060	5707.321777
6196.262422	1.364692	0.599060	7123.872559
6196.263299	1.331884	0.599060	8291.934570
6196.264180	1.141425	0.599060	9297.529297
6196.265180	0.162173	0.599060	9459.702148
6196.266115	0.086946	0.599060	9540.996094
6196.267037	0.087118	0.599060	9621.318359
6196.267902	0.087209	0.599060	9696.754883
6196.268936	0.087096	0.599060	9786.812500
6196.269831	0.087063	0.599060	9864.733398
6196.270703	0.087103	0.599060	9940.687500
6196.271624	0.087111	0.599060	10020.916016
6196.272617	0.087085	0.599060	10107.391602
6196.273539	0.087195	0.599060	10187.785156
6197.299148	0.997277	0.564018	437.804443
6197.300015	1.473790	0.564018	1715.580566
6197.301022	1.472783	0.564018	3198.673340
6197.302081	1.432192	0.564018	4715.365234
6197.302971	1.396454	0.564018	5958.208984
6197.303877	1.361525	0.564018	7191.750000
6197.304989	1.322150	0.564018	8661.980469
6197.305942	0.723369	0.564018	9351.351562
6197.306806	0.096595	0.564018	9434.809570
6197.307852	0.087111	0.564018	9525.927734
6197.308883	0.087092	0.564018	9615.719727
6197.309778	0.087206	0.564018	9693.768555
6197.310735	0.087187	0.564018	9777.207031
6197.311789	0.087195	0.564018	9869.110352
6197.312711	0.087052	0.564018	9949.372070
6197.313575	0.087125	0.564018	10024.648437
6197.314639	0.087316	0.564018	10117.552734
6197.315644	0.087045	0.564018	10205.032227
6198.342125	1.036029	0.606931	490.041779
6198.343000	1.476786	0.606931	1782.229370
6198.343957	1.472842	0.606931	3191.739014
6198.345027	1.431669	0.606931	4723.624512
6198.345957	1.394886	0.606931	6020.869141
6198.346826	1.361444	0.606931	7203.963867
6198.347895	1.323530	0.606931	8618.817383
6198.348901	0.695519	0.606931	9318.509766
6198.349789	0.094204	0.606931	9402.163086
6198.350762	0.087261	0.606931	9487.067383
6198.351818	0.087169	0.606931	9579.118164
6198.352728	0.087283	0.606931	9658.545898
6198.353589	0.087078	0.606931	9733.519531
6198.354687	0.087301	0.606931	9829.375977
6198.355671	0.087089	0.606931	9915.071289
6198.356558	0.087144	0.606931	9992.367187
6198.357559	0.087341	0.606931	10079.795898
6198.358602	0.087092	0.606931	10170.632812
6199.382973	0.980013	0.561701	414.545654
6199.383943	1.473926	0.561701	1844.253540
6199.385005	1.467964	0.561701	3403.231201
6199.385927	1.431790	0.561701	4723.341309
6199.386797	1.396311	0.561701	5938.131836
6199.387877	1.356390	0.561701	7403.033203
6199.388867	1.320842	0.561701	8710.666992
6199.389766	0.745250	0.561701	9380.646484
6199.390752	0.095757	0.561701	9475.062500
6199.391811	0.087067	0.561701	9567.265625
6199.392703	0.087177	0.561701	9645.027344
6199.393569	0.087187	0.561701	9720.531250
6199.394665	0.087275	0.561701	9816.185547
6199.395624	0.086964	0.561701	9899.583984
6199.396489	0.087085	0.561701	9974.912109
6199.397535	0.087264	0.561701	10066.190430
6199.398575	0.087177	0.561701	10156.853516
6199.399458	0.087129	0.561701	10233.788086
